#  Created by Sandify
#  https://sandify.org
#  Version: 0.2.8
#
#  Machine type: Rectangular
#    Min X (mm): 0
#    Max X (mm): 500
#    Min Y (mm): 0
#    Max Y (mm): 500
#  Content type: shape
#  Layer:
#    Shape: Heart
#    Name: bubbles
#    Visible: true
#    Initial width: 22
#    Initial height: 22
#    X offset: 0
#    Y offset: 0
#    Rotate (degrees): 0
#    Reverse path: false
#    Number of loops: 16
#    When transforming shape: smear
#    Scale: true
#      Scale (+/-): 100
#      Scale by: constant
#    Spin: true
#      Spin (+/-): 2
#      Spin by: constant
#        Switchbacks: 0
#    Track: false
#    Fine tuning:
#      Connect to next layer: line
#      Draw portion of path (%): 100
#      Backtrack at end (%): 0
#      Rotate starting point (%): 0
#  Reverse export path: false
#
# File name: 'heart 1'
# File type: thetarho
#

0.00000 0.00875
0.00016 0.00891
0.00230 0.00924
0.00842 0.00974
0.01958 0.01040
0.03581 0.01122
0.05730 0.01218
0.08342 0.01325
0.11357 0.01444
0.14726 0.01571
0.18394 0.01705
0.22317 0.01843
0.26463 0.01985
0.30819 0.02127
0.35353 0.02269
0.40050 0.02409
0.44911 0.02544
0.49911 0.02675
0.55045 0.02801
0.60289 0.02920
0.65639 0.03031
0.71073 0.03135
0.76568 0.03231
0.82111 0.03319
0.87681 0.03397
0.93255 0.03465
0.98826 0.03524
1.04368 0.03571
1.09880 0.03606
1.15363 0.03629
1.20817 0.03638
1.26259 0.03633
1.31703 0.03614
1.37186 0.03579
1.42750 0.03530
1.48442 0.03467
1.54335 0.03391
1.60496 0.03304
1.67013 0.03207
1.73971 0.03105
1.81467 0.03001
1.89576 0.02899
1.98355 0.02805
2.07804 0.02724
2.17851 0.02663
2.28334 0.02625
2.39003 0.02616
2.49543 0.02637
2.59625 0.02688
2.68962 0.02768
2.77353 0.02872
2.84697 0.02996
2.90965 0.03134
2.96196 0.03282
3.00472 0.03434
3.03891 0.03586
3.06563 0.03734
3.08588 0.03875
3.10074 0.04007
3.11111 0.04125
3.11785 0.04230
3.12181 0.04318
3.12364 0.04389
3.12417 0.04441
3.12399 0.04474
3.12385 0.04488
3.12433 0.04482
3.12620 0.04456
3.13015 0.04411
3.13688 0.04347
3.14726 0.04266
3.16211 0.04170
3.18239 0.04061
3.20912 0.03940
3.24332 0.03813
3.28606 0.03683
3.33835 0.03554
3.40103 0.03433
3.47444 0.03326
3.55662 0.03241
3.55837 0.03240
3.64471 0.03184
3.65178 0.03180
3.74073 0.03154
3.75259 0.03152
3.84227 0.03157
3.85799 0.03160
3.94637 0.03195
3.96466 0.03205
4.04995 0.03267
4.06950 0.03285
4.15041 0.03372
4.16996 0.03397
4.24583 0.03504
4.26443 0.03535
4.33519 0.03658
4.35225 0.03692
4.41825 0.03828
4.43334 0.03863
4.49529 0.04007
4.50830 0.04040
4.56697 0.04188
4.57791 0.04218
4.63412 0.04366
4.64303 0.04392
4.69755 0.04536
4.70466 0.04556
4.75814 0.04694
4.76356 0.04709
4.81653 0.04836
4.82052 0.04846
4.87336 0.04960
4.87615 0.04966
4.92906 0.05064
4.93097 0.05068
4.98407 0.05148
4.98543 0.05151
5.03872 0.05212
5.03984 0.05213
5.09327 0.05256
5.09436 0.05257
5.14787 0.05280
5.14918 0.05281
5.20271 0.05286
5.20432 0.05286
5.25784 0.05274
5.25976 0.05274
5.31326 0.05245
5.31543 0.05244
5.36891 0.05198
5.37119 0.05196
5.42464 0.05135
5.42687 0.05133
5.48029 0.05056
5.48231 0.05053
5.53567 0.04960
5.53727 0.04957
5.59050 0.04848
5.59163 0.04846
5.64463 0.04720
5.64510 0.04719
5.69759 0.04578
5.74891 0.04422
5.79889 0.04253
5.84746 0.04071
5.89449 0.03878
5.93982 0.03677
5.98332 0.03470
6.02485 0.03259
6.06408 0.03049
6.10073 0.02842
6.13441 0.02642
6.16461 0.02453
6.19073 0.02279
6.21218 0.02125
6.22845 0.01993
6.23957 0.01888
6.24562 0.01811
6.24827 0.01750
6.24835 0.01774
6.25062 0.01833
6.25673 0.01925
6.26779 0.02049
6.28415 0.02201
6.30559 0.02380
6.33169 0.02582
6.36185 0.02802
6.39556 0.03038
6.43221 0.03285
6.47082 0.03536
6.47145 0.03540
6.51073 0.03784
6.51294 0.03799
6.55286 0.04034
6.55644 0.04057
6.59699 0.04284
6.60179 0.04313
6.64297 0.04529
6.64881 0.04563
6.69055 0.04768
6.69738 0.04804
6.73962 0.04997
6.74740 0.05035
6.79005 0.05215
6.79872 0.05254
6.84165 0.05420
6.85117 0.05459
6.89431 0.05611
6.90467 0.05650
6.94790 0.05788
6.95899 0.05826
7.00223 0.05949
7.01398 0.05986
7.05718 0.06095
7.06940 0.06128
7.11254 0.06223
7.12509 0.06254
7.16817 0.06334
7.18085 0.06361
7.22388 0.06426
7.23652 0.06448
7.27952 0.06498
7.29196 0.06515
7.33496 0.06549
7.34710 0.06561
7.39010 0.06576
7.40191 0.06583
7.44489 0.06579
7.45646 0.06581
7.49937 0.06557
7.51085 0.06553
7.55364 0.06510
7.56529 0.06500
7.60791 0.06436
7.62014 0.06420
7.66256 0.06338
7.67577 0.06315
7.71807 0.06216
7.73271 0.06186
7.77508 0.06073
7.79164 0.06033
7.83435 0.05911
7.85323 0.05862
7.89672 0.05734
7.91839 0.05676
7.96313 0.05546
7.98797 0.05480
8.03453 0.05352
8.06293 0.05282
8.11183 0.05161
8.14404 0.05090
8.19575 0.04979
8.23184 0.04912
8.28660 0.04817
8.32633 0.04759
8.38410 0.04684
8.42681 0.04640
8.48713 0.04590
8.53163 0.04564
8.59357 0.04542
8.63830 0.04537
8.70057 0.04545
8.74369 0.04562
8.80477 0.04603
8.84450 0.04639
8.90294 0.04713
8.93788 0.04765
8.99251 0.04869
9.02184 0.04933
9.07190 0.05065
9.09526 0.05133
9.14036 0.05291
9.15792 0.05358
9.19798 0.05538
9.21023 0.05597
9.24537 0.05797
9.25298 0.05843
9.28346 0.06060
9.28717 0.06088
9.31327 0.06320
9.31389 0.06326
9.33417 0.06550
9.34903 0.06757
9.35940 0.06942
9.36614 0.07102
9.37008 0.07235
9.37193 0.07338
9.37244 0.07410
9.37228 0.07450
9.37212 0.07457
9.37263 0.07431
9.37448 0.07373
9.37841 0.07283
9.38517 0.07164
9.39553 0.07017
9.41040 0.06845
9.43067 0.06652
9.45738 0.06443
9.48861 0.06241
9.49158 0.06222
9.52646 0.06037
9.53433 0.05998
9.57304 0.05832
9.58664 0.05778
9.62923 0.05633
9.64930 0.05571
9.69571 0.05450
9.72272 0.05387
9.77264 0.05292
9.80666 0.05237
9.85952 0.05171
9.90007 0.05131
9.95495 0.05095
10.00088 0.05077
10.05662 0.05072
10.10625 0.05081
10.16157 0.05106
10.21294 0.05144
10.26667 0.05197
10.31776 0.05263
10.36903 0.05341
10.41824 0.05432
10.46656 0.05531
10.51272 0.05642
10.55797 0.05759
10.60051 0.05884
10.64287 0.06012
10.68163 0.06145
10.72149 0.06282
10.75658 0.06416
10.79442 0.06556
10.82618 0.06687
10.86250 0.06827
10.89132 0.06950
10.92660 0.07087
10.95293 0.07199
10.98756 0.07328
11.01184 0.07427
11.04614 0.07545
11.06879 0.07631
11.10299 0.07736
11.12443 0.07807
11.15865 0.07896
11.17927 0.07954
11.21356 0.08025
11.23372 0.08071
11.26809 0.08122
11.28811 0.08156
11.32251 0.08188
11.34265 0.08211
11.37704 0.08223
11.39747 0.08236
11.43182 0.08230
11.45261 0.08231
11.48690 0.08208
11.50805 0.08199
11.54229 0.08159
11.56371 0.08139
11.59790 0.08083
11.61947 0.08053
11.65361 0.07982
11.67515 0.07943
11.70924 0.07856
11.73059 0.07807
11.76459 0.07705
11.78556 0.07648
11.81946 0.07530
11.83990 0.07465
11.87360 0.07331
11.89339 0.07259
11.92682 0.07110
11.94587 0.07031
11.97894 0.06866
11.99718 0.06781
12.02978 0.06601
12.04717 0.06512
12.07924 0.06318
12.09574 0.06225
12.12720 0.06018
12.14277 0.05922
12.17358 0.05703
12.18812 0.05607
12.21827 0.05378
12.23163 0.05284
12.26117 0.05045
12.27313 0.04956
12.30205 0.04710
12.31235 0.04629
12.34072 0.04377
12.34903 0.04309
12.37677 0.04051
12.38270 0.04000
12.40975 0.03737
12.41288 0.03709
12.43896 0.03442
12.43898 0.03442
12.46042 0.03204
12.47677 0.03001
12.48783 0.02839
12.49395 0.02721
12.49655 0.02625
12.49667 0.02658
12.49891 0.02742
12.50502 0.02876
12.51606 0.03057
12.53239 0.03281
12.55388 0.03543
12.57781 0.03811
12.57997 0.03838
12.60509 0.04103
12.61013 0.04160
12.63608 0.04421
12.64383 0.04505
12.67036 0.04760
12.68049 0.04866
12.70751 0.05115
12.71972 0.05237
12.74718 0.05478
12.76121 0.05612
12.78911 0.05846
12.80474 0.05987
12.83305 0.06211
12.85006 0.06357
12.87878 0.06570
12.89710 0.06717
12.92619 0.06918
12.94566 0.07064
12.97509 0.07253
12.99567 0.07395
13.02536 0.07570
13.04698 0.07707
13.07686 0.07868
13.09946 0.07999
13.12944 0.08145
13.15295 0.08269
13.18297 0.08401
13.20727 0.08516
13.23729 0.08634
13.26225 0.08740
13.29223 0.08843
13.31768 0.08938
13.34760 0.09027
13.37337 0.09111
13.40322 0.09184
13.42914 0.09256
13.45894 0.09315
13.48480 0.09373
13.51456 0.09416
13.54024 0.09460
13.56997 0.09486
13.59538 0.09515
13.62508 0.09523
13.65019 0.09537
13.67984 0.09526
13.70473 0.09523
13.73430 0.09493
13.75912 0.09473
13.78858 0.09423
13.81358 0.09386
13.84287 0.09316
13.86842 0.09262
13.89755 0.09173
13.92405 0.09100
13.95309 0.08995
13.98100 0.08904
14.01007 0.08786
14.03991 0.08676
14.06923 0.08548
14.09942 0.08428
14.10152 0.08420
14.13139 0.08287
14.16220 0.08162
14.16666 0.08144
14.19743 0.08010
14.22923 0.07882
14.23627 0.07856
14.26833 0.07723
14.30148 0.07599
14.31123 0.07564
14.34497 0.07438
14.37983 0.07320
14.39233 0.07281
14.42808 0.07166
14.46495 0.07060
14.48012 0.07020
14.51808 0.06920
14.55710 0.06830
14.57460 0.06794
14.61477 0.06714
14.65585 0.06645
14.67509 0.06617
14.71718 0.06562
14.75991 0.06518
14.77991 0.06502
14.82330 0.06475
14.86698 0.06460
14.88660 0.06457
14.93039 0.06461
14.97405 0.06477
14.99196 0.06487
15.03510 0.06523
15.07768 0.06571
15.09278 0.06591
15.13422 0.06659
15.17476 0.06738
15.18617 0.06763
15.22507 0.06862
15.26280 0.06971
15.27011 0.06993
15.30589 0.07121
15.34036 0.07257
15.34352 0.07271
15.37587 0.07424
15.40620 0.07581
15.43503 0.07757
15.45851 0.07912
15.48389 0.08109
15.50126 0.08252
15.52335 0.08466
15.53545 0.08590
15.55446 0.08820
15.56216 0.08917
15.57827 0.09160
15.58245 0.09225
15.59584 0.09479
15.59731 0.09508
15.60767 0.09759
15.61443 0.09975
15.61835 0.10152
15.62021 0.10287
15.62073 0.10378
15.62056 0.10425
15.62040 0.10425
15.62090 0.10380
15.62277 0.10290
15.62669 0.10156
15.63345 0.09981
15.64382 0.09768
15.65850 0.09523
15.65867 0.09520
15.67569 0.09287
15.67895 0.09244
15.69840 0.09024
15.70565 0.08945
15.72766 0.08740
15.73985 0.08632
15.76455 0.08443
15.78261 0.08313
15.81010 0.08144
15.83493 0.08001
15.86529 0.07853
15.89679 0.07712
15.89759 0.07708
15.93078 0.07583
15.96504 0.07467
15.97101 0.07448
16.00684 0.07349
16.04359 0.07260
16.05494 0.07235
16.09300 0.07164
16.13175 0.07104
16.14835 0.07082
16.18799 0.07042
16.22803 0.07013
16.24914 0.07002
16.28954 0.06993
16.32999 0.06995
16.35453 0.07001
16.39476 0.07022
16.43469 0.07054
16.46120 0.07082
16.50040 0.07131
16.53900 0.07191
16.56603 0.07240
16.60353 0.07315
16.64022 0.07399
16.66651 0.07467
16.70193 0.07563
16.73642 0.07668
16.76101 0.07750
16.79424 0.07863
16.82650 0.07984
16.84879 0.08075
16.87996 0.08200
16.91016 0.08333
16.92990 0.08427
16.95926 0.08560
16.98771 0.08701
17.00486 0.08791
17.03277 0.08928
17.05982 0.09072
17.07446 0.09155
17.10127 0.09293
17.12728 0.09436
17.13960 0.09508
17.16565 0.09642
17.19098 0.09781
17.20121 0.09841
17.22679 0.09966
17.25173 0.10098
17.26012 0.10145
17.28547 0.10260
17.31024 0.10381
17.31707 0.10416
17.34234 0.10516
17.36711 0.10623
17.37270 0.10648
17.39797 0.10732
17.42284 0.10823
17.42754 0.10841
17.45285 0.10906
17.47784 0.10978
17.48200 0.10991
17.50734 0.11037
17.53245 0.11090
17.53638 0.11099
17.56173 0.11125
17.58693 0.11159
17.59093 0.11165
17.61625 0.11172
17.64151 0.11187
17.64575 0.11190
17.67102 0.11179
17.69632 0.11176
17.70088 0.11176
17.72609 0.11148
17.75142 0.11127
17.75633 0.11123
17.78149 0.11079
17.80684 0.11041
17.81199 0.11034
17.83710 0.10974
17.86247 0.10920
17.86775 0.10910
17.89282 0.10834
17.91822 0.10766
17.92344 0.10752
17.94845 0.10661
17.97387 0.10577
17.97887 0.10561
18.00381 0.10455
18.02925 0.10355
18.03384 0.10338
18.05868 0.10217
18.08411 0.10101
18.08818 0.10084
18.11287 0.09947
18.13824 0.09816
18.14166 0.09799
18.16615 0.09646
18.19141 0.09499
18.19413 0.09484
18.21834 0.09316
18.24342 0.09154
18.24546 0.09141
18.26931 0.08958
18.29414 0.08781
18.29545 0.08772
18.31889 0.08575
18.34342 0.08383
18.34403 0.08379
18.36701 0.08170
18.39105 0.07966
18.41356 0.07745
18.43640 0.07537
18.45841 0.07306
18.47989 0.07097
18.50145 0.06858
18.52141 0.06653
18.54251 0.06406
18.56063 0.06210
18.58130 0.05956
18.59729 0.05776
18.61751 0.05517
18.63098 0.05358
18.65065 0.05095
18.66115 0.04965
18.68011 0.04698
18.68726 0.04605
18.70517 0.04333
18.70871 0.04284
18.72505 0.04010
18.73610 0.03790
18.74222 0.03630
18.74484 0.03500
18.74494 0.03542
18.74717 0.03652
18.75330 0.03827
18.76436 0.04065
18.77968 0.04341
18.78067 0.04360
18.79787 0.04632
18.80214 0.04705
18.82061 0.04974
18.82823 0.05094
18.84760 0.05358
18.85842 0.05519
18.87839 0.05778
18.89210 0.05972
18.91252 0.06226
18.92877 0.06446
18.94955 0.06694
18.96800 0.06933
18.98910 0.07174
19.00883 0.07417
19.00949 0.07426
19.03092 0.07658
19.05107 0.07893
19.05301 0.07917
19.07475 0.08139
19.09532 0.08366
19.09834 0.08400
19.12039 0.08612
19.14136 0.08828
19.14537 0.08871
19.16770 0.09071
19.18905 0.09275
19.19394 0.09323
19.21651 0.09510
19.23820 0.09701
19.24394 0.09754
19.26670 0.09927
19.28867 0.10105
19.29526 0.10160
19.31816 0.10318
19.34035 0.10482
19.34774 0.10539
19.37071 0.10682
19.39306 0.10831
19.40123 0.10888
19.42423 0.11017
19.44668 0.11151
19.45556 0.11207
19.47854 0.11321
19.50105 0.11441
19.51052 0.11494
19.53346 0.11593
19.55600 0.11699
19.56597 0.11748
19.58885 0.11833
19.61140 0.11924
19.62165 0.11968
19.64448 0.12038
19.66704 0.12114
19.67741 0.12151
19.70019 0.12206
19.72276 0.12268
19.73307 0.12298
19.75582 0.12337
19.77841 0.12382
19.78852 0.12405
19.81123 0.12427
19.83385 0.12455
19.84365 0.12470
19.86633 0.12474
19.88898 0.12484
19.89847 0.12491
19.92110 0.12476
19.94377 0.12468
19.95301 0.12466
19.97556 0.12431
19.99823 0.12403
20.00740 0.12394
20.02984 0.12339
20.05247 0.12291
20.06186 0.12273
20.08417 0.12198
20.10674 0.12130
20.11669 0.12103
20.13887 0.12010
20.16138 0.11924
20.17232 0.11885
20.19442 0.11777
20.21692 0.11675
20.22928 0.11622
20.25140 0.11501
20.27398 0.11386
20.28819 0.11318
20.31051 0.11188
20.33334 0.11063
20.34979 0.10979
20.37254 0.10843
20.39584 0.10713
20.41494 0.10613
20.43839 0.10476
20.46244 0.10344
20.48455 0.10231
20.50899 0.10096
20.53408 0.09967
20.55949 0.09846
20.58524 0.09717
20.61167 0.09595
20.63875 0.09480
20.64061 0.09473
20.66792 0.09355
20.69591 0.09244
20.72456 0.09141
20.72840 0.09128
20.75744 0.09025
20.78713 0.08930
20.81742 0.08844
20.82288 0.08829
20.85367 0.08747
20.88501 0.08672
20.91686 0.08607
20.92336 0.08595
20.95567 0.08537
20.98840 0.08487
21.02146 0.08447
21.02819 0.08440
21.06158 0.08410
21.09516 0.08390
21.12887 0.08379
21.13487 0.08378
21.16863 0.08378
21.20235 0.08389
21.23595 0.08408
21.24026 0.08412
21.27359 0.08445
21.30662 0.08487
21.33929 0.08539
21.34105 0.08542
21.37315 0.08607
21.40473 0.08681
21.43445 0.08760
21.46464 0.08856
21.49416 0.08961
21.51839 0.09054
21.54622 0.09179
21.57328 0.09311
21.59181 0.09408
21.61702 0.09559
21.64143 0.09716
21.65447 0.09805
21.67699 0.09979
21.69872 0.10158
21.70679 0.10228
21.72665 0.10422
21.74578 0.10621
21.74954 0.10661
21.76687 0.10874
21.78353 0.11090
21.78374 0.11092
21.79867 0.11320
21.81044 0.11509
21.82314 0.11750
21.83073 0.11900
21.84131 0.12153
21.84558 0.12258
21.85417 0.12520
21.85595 0.12576
21.86265 0.12846
21.86270 0.12848
21.86663 0.13069
21.86849 0.13236
21.86901 0.13347
21.86884 0.13400
21.86868 0.13394
21.86918 0.13329
21.87105 0.13207
21.87498 0.13029
21.88173 0.12798
21.89120 0.12542
21.89209 0.12518
21.90333 0.12272
21.90695 0.12195
21.92001 0.11960
21.92724 0.11835
21.94221 0.11613
21.95394 0.11447
21.97093 0.11240
21.98814 0.11041
22.00724 0.10850
22.02702 0.10664
22.03089 0.10629
22.05220 0.10457
22.07422 0.10290
22.08320 0.10225
22.10678 0.10074
22.13106 0.09929
22.14586 0.09846
22.17169 0.09718
22.19818 0.09598
22.21928 0.09508
22.24721 0.09407
22.27572 0.09313
22.30323 0.09232
22.33295 0.09159
22.36312 0.09094
22.39370 0.09038
22.39662 0.09033
22.42765 0.08991
22.45894 0.08956
22.49044 0.08931
22.49743 0.08927
22.52911 0.08915
22.56084 0.08912
22.59256 0.08918
22.60281 0.08922
22.63441 0.08940
22.66585 0.08967
22.69708 0.09004
22.70948 0.09020
22.74033 0.09067
22.77082 0.09123
22.80093 0.09186
22.81432 0.09218
22.84387 0.09290
22.87295 0.09370
22.90150 0.09458
22.91480 0.09502
22.94275 0.09596
22.97014 0.09697
22.99695 0.09805
23.00928 0.09858
23.03554 0.09968
23.06120 0.10086
23.08626 0.10210
23.09707 0.10266
23.12172 0.10389
23.14577 0.10519
23.16923 0.10654
23.17818 0.10709
23.20142 0.10840
23.22410 0.10977
23.24620 0.11120
23.25313 0.11167
23.27524 0.11302
23.29681 0.11443
23.31784 0.11589
23.32273 0.11624
23.34397 0.11759
23.36473 0.11900
23.38499 0.12045
23.38788 0.12067
23.40853 0.12198
23.42874 0.12334
23.44849 0.12476
23.44949 0.12483
23.46978 0.12606
23.48966 0.12735
23.50840 0.12863
23.52850 0.12976
23.54824 0.13093
23.56535 0.13201
23.58538 0.13299
23.60511 0.13402
23.62098 0.13490
23.64101 0.13571
23.66079 0.13657
23.67582 0.13727
23.69587 0.13790
23.71573 0.13858
23.73027 0.13911
23.75034 0.13954
23.77027 0.14003
23.78467 0.14042
23.80473 0.14065
23.82471 0.14094
23.83921 0.14119
23.85924 0.14124
23.87924 0.14134
23.89402 0.14145
23.91401 0.14131
23.93402 0.14123
23.94916 0.14120
23.96909 0.14089
23.98910 0.14064
24.00460 0.14048
24.02448 0.14000
24.04449 0.13959
24.06027 0.13930
24.08010 0.13866
24.10011 0.13809
24.11602 0.13767
24.13582 0.13689
24.15583 0.13616
24.17171 0.13562
24.19146 0.13469
24.21148 0.13380
24.22715 0.13316
24.24684 0.13207
24.26685 0.13103
24.28212 0.13029
24.30172 0.12905
24.32170 0.12786
24.33645 0.12703
24.35593 0.12563
24.37584 0.12429
24.38994 0.12338
24.40925 0.12184
24.42905 0.12034
24.44242 0.11937
24.46150 0.11767
24.48114 0.11602
24.49374 0.11501
24.51254 0.11316
24.53196 0.11136
24.54374 0.11031
24.56221 0.10833
24.58136 0.10639
24.59231 0.10533
24.61042 0.10322
24.62928 0.10115
24.63934 0.10010
24.65706 0.09788
24.67559 0.09569
24.68466 0.09467
24.70200 0.09235
24.72023 0.09006
24.72819 0.08911
24.74515 0.08670
24.76307 0.08433
24.76967 0.08349
24.78628 0.08102
24.80394 0.07856
24.80891 0.07790
24.82518 0.07536
24.84257 0.07285
24.84557 0.07243
24.86147 0.06984
24.87859 0.06726
24.87925 0.06717
24.89471 0.06453
24.90942 0.06222
24.92430 0.05954
24.93553 0.05767
24.94959 0.05496
24.95700 0.05363
24.96983 0.05088
24.97332 0.05018
24.98437 0.04741
24.99048 0.04539
24.99310 0.04375
24.99321 0.04425
24.99547 0.04561
25.00159 0.04779
25.01203 0.05057
25.01262 0.05074
25.02514 0.05349
25.02897 0.05439
25.04297 0.05711
25.05041 0.05868
25.06546 0.06136
25.07652 0.06350
25.09227 0.06614
25.10670 0.06877
25.12294 0.07136
25.13804 0.07397
25.14038 0.07439
25.15697 0.07693
25.17250 0.07948
25.17705 0.08027
25.19392 0.08274
25.20982 0.08523
25.21628 0.08630
25.23342 0.08870
25.24965 0.09112
25.25777 0.09239
25.27516 0.09471
25.29172 0.09705
25.30129 0.09847
25.31893 0.10068
25.33580 0.10293
25.34663 0.10444
25.36451 0.10655
25.38170 0.10869
25.39365 0.11025
25.41176 0.11224
25.42923 0.11426
25.44222 0.11583
25.46052 0.11768
25.47824 0.11958
25.49222 0.12114
25.51067 0.12285
25.52861 0.12460
25.54353 0.12613
25.56209 0.12770
25.58019 0.12931
25.59601 0.13078
25.61462 0.13220
25.63284 0.13366
25.64950 0.13507
25.66813 0.13634
25.68641 0.13765
25.70383 0.13898
25.72244 0.14010
25.74076 0.14126
25.75876 0.14248
25.75881 0.14248
25.77739 0.14346
25.79571 0.14448
25.81376 0.14555
25.81424 0.14558
25.83277 0.14640
25.85108 0.14728
25.86917 0.14821
25.86992 0.14825
25.88840 0.14892
25.90671 0.14965
25.92484 0.15043
25.92569 0.15047
25.94413 0.15099
25.96243 0.15157
25.98059 0.15220
25.98135 0.15223
25.99975 0.15259
26.01806 0.15301
26.03626 0.15348
26.03679 0.15349
26.05516 0.15369
26.07348 0.15394
26.09174 0.15424
26.09193 0.15424
26.11027 0.15426
26.12859 0.15433
26.14675 0.15445
26.16504 0.15428
26.18336 0.15416
26.20129 0.15409
26.21951 0.15372
26.23781 0.15340
26.25568 0.15314
26.27380 0.15257
26.29205 0.15205
26.31014 0.15159
26.32815 0.15082
26.34634 0.15011
26.36469 0.14945
26.36497 0.14944
26.38287 0.14849
26.40100 0.14760
26.41933 0.14675
26.42060 0.14670
26.43843 0.14560
26.45653 0.14455
26.47489 0.14354
26.47756 0.14340
26.49541 0.14218
26.51356 0.14100
26.53202 0.13986
26.53646 0.13960
26.55447 0.13828
26.57283 0.13701
26.59152 0.13579
26.59807 0.13537
26.61643 0.13400
26.63516 0.13267
26.65427 0.13139
26.66322 0.13082
26.68216 0.12943
26.70149 0.12809
26.72123 0.12679
26.73282 0.12607
26.75257 0.12470
26.77275 0.12338
26.79336 0.12212
26.80778 0.12128
26.82859 0.11998
26.84986 0.11873
26.87156 0.11753
26.88888 0.11664
26.91098 0.11544
26.93353 0.11431
26.95652 0.11323
26.97668 0.11235
27.00020 0.11131
27.02415 0.11033
27.04851 0.10942
27.07116 0.10864
27.09611 0.10780
27.12144 0.10703
27.14712 0.10632
27.17164 0.10572
27.19786 0.10512
27.22436 0.10460
27.25111 0.10414
27.27647 0.10379
27.30359 0.10347
27.33086 0.10323
27.35823 0.10306
27.38314 0.10298
27.41061 0.10297
27.43807 0.10304
27.46546 0.10318
27.48853 0.10336
27.51568 0.10368
27.54266 0.10407
27.56941 0.10453
27.58934 0.10493
27.61552 0.10556
27.64138 0.10627
27.66687 0.10705
27.68273 0.10757
27.70740 0.10852
27.73162 0.10953
27.75539 0.11061
27.76667 0.11115
27.78943 0.11238
27.81169 0.11368
27.83344 0.11502
27.84009 0.11545
27.86074 0.11695
27.88086 0.11850
27.90045 0.12009
27.90275 0.12028
27.92122 0.12201
27.93917 0.12378
27.95506 0.12543
27.97138 0.12737
27.98721 0.12933
27.99782 0.13071
28.01207 0.13282
28.02587 0.13496
28.03201 0.13595
28.04431 0.13822
28.05622 0.14051
28.05872 0.14100
28.06919 0.14341
28.07900 0.14575
28.08776 0.14827
28.09386 0.15009
28.10098 0.15270
28.10423 0.15393
28.10980 0.15662
28.11098 0.15720
28.11491 0.15986
28.11677 0.16185
28.11728 0.16316
28.11712 0.16375
28.11695 0.16362
28.11746 0.16278
28.11933 0.16124
28.12325 0.15901
28.12949 0.15636
28.13001 0.15614
28.13765 0.15358
28.14037 0.15268
28.14947 0.15021
28.15523 0.14870
28.16582 0.14634
28.17551 0.14427
28.18768 0.14204
28.20024 0.13983
28.20222 0.13949
28.21605 0.13741
28.23030 0.13536
28.23642 0.13450
28.25199 0.13258
28.26802 0.13070
28.27917 0.12944
28.29657 0.12771
28.31445 0.12602
28.33149 0.12448
28.35076 0.12296
28.37051 0.12149
28.39073 0.12006
28.39415 0.11983
28.41528 0.11854
28.43687 0.11731
28.45890 0.11613
28.46756 0.11569
28.49044 0.11466
28.51372 0.11370
28.53739 0.11279
28.55151 0.11229
28.57589 0.11155
28.60059 0.11087
28.62557 0.11026
28.64490 0.10984
28.67038 0.10940
28.69606 0.10903
28.72189 0.10873
28.74570 0.10852
28.77176 0.10838
28.79785 0.10832
28.82397 0.10833
28.85005 0.10842
28.85109 0.10842
28.87711 0.10859
28.90303 0.10883
28.92883 0.10915
28.95445 0.10953
28.95777 0.10959
28.98319 0.11004
29.00839 0.11056
29.03334 0.11116
29.05800 0.11182
29.06260 0.11195
29.08699 0.11266
29.11105 0.11343
29.13478 0.11427
29.15815 0.11517
29.16308 0.11537
29.18616 0.11629
29.20887 0.11728
29.23119 0.11832
29.25311 0.11942
29.25756 0.11965
29.27926 0.12075
29.30056 0.12190
29.32146 0.12310
29.34194 0.12436
29.34535 0.12458
29.36573 0.12580
29.38572 0.12707
29.40530 0.12839
29.42447 0.12976
29.42645 0.12990
29.44569 0.13121
29.46454 0.13256
29.48300 0.13395
29.50107 0.13539
29.50141 0.13542
29.51971 0.13676
29.53764 0.13815
29.55522 0.13958
29.57101 0.14093
29.58860 0.14227
29.60586 0.14365
29.62279 0.14507
29.63617 0.14625
29.65327 0.14755
29.67007 0.14889
29.68657 0.15027
29.69777 0.15125
29.71458 0.15247
29.73111 0.15373
29.74736 0.15504
29.75668 0.15581
29.77332 0.15692
29.78973 0.15807
29.80590 0.15926
29.81363 0.15985
29.83022 0.16082
29.84661 0.16182
29.86279 0.16287
29.86926 0.16331
29.88584 0.16410
29.90227 0.16494
29.91852 0.16582
29.92410 0.16613
29.94070 0.16674
29.95717 0.16739
29.97351 0.16809
29.97856 0.16832
29.99516 0.16873
30.01168 0.16918
30.02811 0.16969
30.03295 0.16984
30.04954 0.17006
30.06609 0.17032
30.08258 0.17063
30.08749 0.17073
30.10405 0.17076
30.12061 0.17083
30.13714 0.17095
30.14230 0.17099
30.15882 0.17084
30.17537 0.17072
30.19193 0.17066
30.19744 0.17065
30.21391 0.17032
30.23045 0.17004
30.24704 0.16980
30.25288 0.16973
30.26932 0.16923
30.28584 0.16879
30.30245 0.16839
30.30854 0.16825
30.32494 0.16760
30.34145 0.16700
30.35808 0.16644
30.36430 0.16624
30.38066 0.16544
30.39717 0.16468
30.41382 0.16397
30.42000 0.16372
30.43631 0.16277
30.45281 0.16186
30.46950 0.16099
30.47542 0.16070
30.49169 0.15960
30.50817 0.15853
30.52488 0.15752
30.53040 0.15719
30.54659 0.15594
30.56304 0.15473
30.57974 0.15356
30.58473 0.15322
30.60081 0.15181
30.61720 0.15044
30.63387 0.14912
30.63822 0.14878
30.65416 0.14722
30.67044 0.14570
30.68706 0.14422
30.69070 0.14390
30.70645 0.14219
30.72258 0.14052
30.73909 0.13888
30.74201 0.13860
30.75752 0.13675
30.77346 0.13493
30.78983 0.13314
30.79201 0.13291
30.80725 0.13092
30.82296 0.12896
30.83915 0.12704
30.84059 0.12687
30.85552 0.12476
30.87097 0.12267
30.88695 0.12062
30.88761 0.12053
30.90223 0.11831
30.91740 0.11611
30.93294 0.11397
30.94724 0.11164
30.96215 0.10934
30.97645 0.10724
30.99045 0.10484
31.00509 0.10245
31.01796 0.10046
31.03165 0.09798
31.04606 0.09552
31.05720 0.09371
31.07060 0.09116
31.08477 0.08864
31.09385 0.08710
31.10695 0.08450
31.12088 0.08192
31.12753 0.08075
31.14027 0.07811
31.15389 0.07548
31.15771 0.07478
31.16996 0.07210
31.18314 0.06943
31.18381 0.06930
31.19537 0.06658
31.20528 0.06442
31.21582 0.06167
31.22160 0.06027
31.23070 0.05749
31.23265 0.05693
31.23877 0.05449
31.24139 0.05250
31.24149 0.05309
31.24375 0.05470
31.24987 0.05730
31.25870 0.06008
31.26092 0.06082
31.27147 0.06357
31.27724 0.06519
31.28905 0.06790
31.29868 0.07030
31.31137 0.07298
31.32316 0.07567
31.32481 0.07606
31.33808 0.07870
31.35048 0.08135
31.35498 0.08236
31.36866 0.08494
31.38152 0.08754
31.38866 0.08906
31.40263 0.09160
31.41584 0.09414
31.42532 0.09607
31.43953 0.09854
31.45304 0.10103
31.46456 0.10326
31.47899 0.10566
31.49277 0.10807
31.50595 0.11051
31.50606 0.11053
31.52069 0.11284
31.53473 0.11517
31.54821 0.11752
31.54956 0.11777
31.56440 0.11998
31.57870 0.12221
31.59249 0.12447
31.59490 0.12488
31.60995 0.12698
31.62450 0.12911
31.63858 0.13126
31.64193 0.13179
31.65716 0.13377
31.67194 0.13578
31.68629 0.13781
31.69049 0.13843
31.70588 0.14027
31.72087 0.14215
31.73547 0.14406
31.74051 0.14473
31.75602 0.14644
31.77118 0.14817
31.78598 0.14994
31.79182 0.15066
31.80742 0.15222
31.82270 0.15381
31.83766 0.15544
31.84430 0.15618
31.85994 0.15759
31.87531 0.15903
31.89039 0.16051
31.89778 0.16126
31.91344 0.16252
31.92885 0.16381
31.94401 0.16514
31.95211 0.16588
31.96775 0.16699
31.98318 0.16813
31.99840 0.16932
32.00709 0.17002
32.02270 0.17098
32.03813 0.17198
32.05337 0.17302
32.06252 0.17367
32.07808 0.17449
32.09350 0.17534
32.10876 0.17624
32.11820 0.17681
32.13373 0.17748
32.14913 0.17818
32.16441 0.17893
32.17396 0.17942
32.18945 0.17993
32.20484 0.18048
32.22013 0.18108
32.22963 0.18147
32.24508 0.18182
32.26047 0.18222
32.27579 0.18265
32.28507 0.18294
32.30050 0.18312
32.31588 0.18334
32.33123 0.18361
32.34021 0.18379
32.35560 0.18379
32.37099 0.18383
32.38636 0.18392
32.39503 0.18399
32.41037 0.18380
32.42575 0.18366
32.44114 0.18355
32.44957 0.18352
32.46485 0.18313
32.48020 0.18279
32.49560 0.18249
32.50396 0.18234
32.51916 0.18176
32.53445 0.18121
32.54984 0.18071
32.55841 0.18045
32.57352 0.17967
32.58875 0.17894
32.60410 0.17824
32.61326 0.17785
32.62826 0.17689
32.64343 0.17597
32.65875 0.17510
32.66889 0.17455
32.68383 0.17343
32.69897 0.17236
32.71429 0.17133
32.72584 0.17058
32.74080 0.16935
32.75598 0.16815
32.77138 0.16699
32.78474 0.16602
32.79984 0.16469
32.81518 0.16340
32.83076 0.16215
32.84635 0.16096
32.86174 0.15957
32.87740 0.15823
32.89332 0.15692
32.90951 0.15566
32.91150 0.15550
32.92737 0.15410
32.94353 0.15274
32.95998 0.15142
32.97672 0.15015
32.98110 0.14982
32.99767 0.14845
33.01454 0.14711
33.03172 0.14582
33.04920 0.14457
33.05606 0.14410
33.07353 0.14279
33.09131 0.14152
33.10942 0.14030
33.12783 0.13912
33.13716 0.13855
33.15572 0.13735
33.17459 0.13619
33.19378 0.13509
33.21328 0.13403
33.22496 0.13343
33.24471 0.13238
33.26478 0.13138
33.28514 0.13043
33.30580 0.12954
33.31944 0.12899
33.34042 0.12814
33.36167 0.12734
33.38317 0.12660
33.40492 0.12593
33.41991 0.12550
33.44197 0.12489
33.46424 0.12434
33.48669 0.12385
33.50931 0.12342
33.52475 0.12317
33.54759 0.12284
33.57054 0.12257
33.59357 0.12237
33.61667 0.12224
33.63143 0.12218
33.65458 0.12216
33.67772 0.12220
33.70084 0.12231
33.72391 0.12249
33.73680 0.12261
33.75971 0.12291
33.78249 0.12328
33.80513 0.12371
33.82761 0.12420
33.83761 0.12444
33.85973 0.12506
33.88161 0.12575
33.90325 0.12649
33.92462 0.12730
33.93100 0.12755
33.95185 0.12848
33.97239 0.12947
33.99262 0.13052
34.01251 0.13162
34.01495 0.13176
34.03421 0.13298
34.05311 0.13425
34.07165 0.13557
34.08837 0.13683
34.10586 0.13832
34.12297 0.13984
34.13970 0.14141
34.15103 0.14252
34.16669 0.14424
34.18197 0.14600
34.19688 0.14778
34.20334 0.14858
34.21719 0.15051
34.23068 0.15247
34.24382 0.15445
34.24610 0.15480
34.25820 0.15691
34.26998 0.15904
34.28029 0.16097
34.29075 0.16323
34.30092 0.16551
34.30700 0.16692
34.31591 0.16932
34.32457 0.17173
34.32728 0.17250
34.33474 0.17501
34.34198 0.17754
34.34214 0.17759
34.34822 0.18020
34.35251 0.18210
34.35728 0.18479
34.35926 0.18593
34.36275 0.18868
34.36319 0.18903
34.36505 0.19135
34.36556 0.19284
34.36540 0.19350
34.36523 0.19331
34.36574 0.19227
34.36761 0.19041
34.37153 0.18774
34.37674 0.18508
34.37828 0.18431
34.38469 0.18174
34.38865 0.18019
34.39629 0.17771
34.40351 0.17545
34.41243 0.17308
34.42159 0.17073
34.42379 0.17018
34.43404 0.16795
34.44457 0.16573
34.45050 0.16451
34.46216 0.16243
34.47413 0.16036
34.48470 0.15859
34.49785 0.15667
34.51132 0.15477
34.52512 0.15290
34.52745 0.15259
34.54215 0.15085
34.55719 0.14915
34.57257 0.14748
34.57976 0.14672
34.59605 0.14519
34.61269 0.14370
34.62967 0.14225
34.64242 0.14120
34.66031 0.13991
34.67852 0.13865
34.69706 0.13745
34.71584 0.13630
34.73522 0.13526
34.75489 0.13427
34.77485 0.13334
34.79507 0.13246
34.79979 0.13227
34.82046 0.13151
34.84136 0.13081
34.86247 0.13017
34.88378 0.12959
34.89318 0.12935
34.91480 0.12890
34.93656 0.12851
34.95845 0.12817
34.98044 0.12790
34.99399 0.12777
35.01611 0.12762
35.03827 0.12753
35.06045 0.12751
35.08262 0.12755
35.09937 0.12763
35.12148 0.12778
35.14353 0.12800
35.16550 0.12829
35.18735 0.12863
35.20604 0.12897
35.22767 0.12941
35.24913 0.12992
35.27042 0.13048
35.29152 0.13110
35.31088 0.13173
35.33163 0.13242
35.35216 0.13318
35.37245 0.13399
35.39249 0.13485
35.41135 0.13572
35.43101 0.13663
35.45040 0.13760
35.46951 0.13861
35.48834 0.13968
35.50584 0.14073
35.52433 0.14182
35.54254 0.14295
35.56045 0.14413
35.57806 0.14535
35.59362 0.14649
35.61100 0.14770
35.62809 0.14895
35.64489 0.15025
35.66140 0.15159
35.67474 0.15272
35.69114 0.15401
35.70726 0.15535
35.72311 0.15672
35.73867 0.15813
35.74969 0.15917
35.76530 0.16051
35.78065 0.16188
35.79573 0.16329
35.81056 0.16473
35.81929 0.16561
35.83430 0.16694
35.84907 0.16831
35.86360 0.16971
35.87789 0.17115
35.88444 0.17183
35.89904 0.17312
35.91341 0.17445
35.92757 0.17581
35.94151 0.17721
35.94604 0.17767
35.96038 0.17888
35.97453 0.18013
35.98848 0.18141
36.00222 0.18273
36.00496 0.18300
36.01916 0.18409
36.03320 0.18523
36.04706 0.18639
36.06075 0.18760
36.06190 0.18770
36.07606 0.18865
36.09007 0.18964
36.10394 0.19067
36.11754 0.19172
36.13169 0.19250
36.14572 0.19332
36.15964 0.19417
36.17237 0.19500
36.18654 0.19559
36.20061 0.19622
36.21459 0.19689
36.22683 0.19752
36.24099 0.19791
36.25510 0.19835
36.26914 0.19883
36.28122 0.19927
36.29537 0.19947
36.30949 0.19972
36.32358 0.20000
36.33576 0.20027
36.34988 0.20028
36.36400 0.20033
36.37811 0.20042
36.39058 0.20054
36.40467 0.20037
36.41877 0.20024
36.43289 0.20014
36.44572 0.20010
36.45976 0.19975
36.47385 0.19945
36.48798 0.19919
36.50116 0.19898
36.51516 0.19847
36.52924 0.19800
36.54337 0.19757
36.55683 0.19720
36.57080 0.19654
36.58485 0.19592
36.59900 0.19533
36.61258 0.19481
36.62652 0.19400
36.64056 0.19322
36.65472 0.19248
36.66827 0.19182
36.68217 0.19085
36.69621 0.18992
36.71038 0.18904
36.72370 0.18824
36.73755 0.18713
36.75157 0.18605
36.76574 0.18501
36.77868 0.18410
36.79247 0.18283
36.80645 0.18160
36.82061 0.18041
36.83301 0.17941
36.84671 0.17799
36.86062 0.17661
36.87475 0.17526
36.88650 0.17418
36.90007 0.17261
36.91389 0.17107
36.92795 0.16957
36.93898 0.16843
36.95239 0.16671
36.96607 0.16503
36.98004 0.16337
36.99029 0.16220
37.00350 0.16034
37.01701 0.15850
37.03084 0.15670
37.04030 0.15551
37.05327 0.15351
37.06658 0.15154
37.08023 0.14960
37.08887 0.14841
37.10157 0.14629
37.11466 0.14420
37.12812 0.14213
37.13589 0.14097
37.14832 0.13874
37.16116 0.13653
37.17443 0.13435
37.18123 0.13326
37.19339 0.13094
37.20599 0.12863
37.21905 0.12634
37.22473 0.12538
37.23664 0.12297
37.24901 0.12057
37.26188 0.11820
37.26623 0.11742
37.27788 0.11494
37.29004 0.11247
37.30274 0.11002
37.30547 0.10951
37.31687 0.10697
37.32882 0.10444
37.34136 0.10192
37.34213 0.10177
37.35327 0.09917
37.36500 0.09659
37.37581 0.09433
37.38663 0.09169
37.39809 0.08906
37.40598 0.08734
37.41639 0.08466
37.42748 0.08198
37.43209 0.08092
37.44191 0.07820
37.45243 0.07549
37.45354 0.07522
37.46249 0.07247
37.46987 0.07035
37.47758 0.06757
37.48092 0.06644
37.48691 0.06364
37.48704 0.06358
37.48968 0.06125
37.48977 0.06193
37.49202 0.06379
37.49774 0.06660
37.49815 0.06681
37.50579 0.06959
37.50919 0.07091
37.51832 0.07366
37.52552 0.07598
37.53573 0.07870
37.54527 0.08142
37.54697 0.08193
37.55794 0.08461
37.56822 0.08729
37.57308 0.08863
37.58455 0.09126
37.59538 0.09390
37.60327 0.09594
37.61508 0.09852
37.62628 0.10112
37.63692 0.10373
37.63693 0.10374
37.64900 0.10626
37.66050 0.10881
37.67148 0.11137
37.67360 0.11188
37.68587 0.11434
37.69761 0.11682
37.70887 0.11932
37.71284 0.12023
37.72529 0.12262
37.73726 0.12503
37.74878 0.12745
37.75434 0.12866
37.76697 0.13097
37.77916 0.13329
37.79093 0.13564
37.79784 0.13706
37.81065 0.13927
37.82306 0.14150
37.83508 0.14375
37.84318 0.14532
37.85617 0.14741
37.86878 0.14953
37.88104 0.15167
37.89021 0.15333
37.90335 0.15530
37.91616 0.15730
37.92864 0.15932
37.93878 0.16102
37.95205 0.16286
37.96503 0.16473
37.97772 0.16662
37.98878 0.16833
38.00216 0.17002
38.01528 0.17175
38.02813 0.17350
38.04009 0.17519
38.05355 0.17674
38.06677 0.17832
38.07975 0.17993
38.09251 0.18157
38.09258 0.18158
38.10607 0.18297
38.11935 0.18440
38.13243 0.18587
38.14530 0.18736
38.14606 0.18745
38.15956 0.18870
38.17288 0.18998
38.18602 0.19129
38.19898 0.19264
38.20039 0.19278
38.21387 0.19388
38.22721 0.19501
38.24038 0.19618
38.25340 0.19738
38.25537 0.19757
38.26882 0.19852
38.28214 0.19950
38.29534 0.20052
38.30839 0.20157
38.31080 0.20177
38.32422 0.20257
38.33753 0.20341
38.35072 0.20428
38.36381 0.20519
38.36649 0.20538
38.37986 0.20603
38.39316 0.20672
38.40636 0.20745
38.41947 0.20821
38.42225 0.20838
38.43559 0.20887
38.44887 0.20941
38.46208 0.20998
38.47522 0.21059
38.47791 0.21072
38.49123 0.21106
38.50450 0.21143
38.51772 0.21185
38.53089 0.21230
38.53336 0.21239
38.54664 0.21255
38.55991 0.21276
38.57315 0.21300
38.58635 0.21328
38.58849 0.21333
38.60175 0.21332
38.61501 0.21335
38.62826 0.21341
38.64150 0.21351
38.64331 0.21353
38.65653 0.21333
38.66977 0.21317
38.68303 0.21304
38.69630 0.21295
38.69784 0.21294
38.71101 0.21254
38.72422 0.21218
38.73747 0.21186
38.75076 0.21157
38.75223 0.21154
38.76532 0.21095
38.77848 0.21039
38.79171 0.20986
38.80500 0.20937
38.80669 0.20931
38.81969 0.20853
38.83279 0.20777
38.84598 0.20705
38.85926 0.20637
38.86153 0.20626
38.87445 0.20529
38.88748 0.20436
38.90064 0.20346
38.91390 0.20260
38.91716 0.20239
38.93003 0.20127
38.94304 0.20018
38.95618 0.19913
38.96947 0.19811
38.97412 0.19777
38.98700 0.19652
39.00004 0.19530
39.01324 0.19412
39.02660 0.19298
39.03302 0.19245
39.04602 0.19111
39.05919 0.18980
39.07255 0.18853
39.08609 0.18730
39.09463 0.18654
39.10788 0.18515
39.12133 0.18379
39.13497 0.18247
39.14882 0.18118
39.15978 0.18019
39.17345 0.17878
39.18733 0.17741
39.20143 0.17607
39.21574 0.17477
39.22938 0.17358
39.24365 0.17219
39.25815 0.17084
39.27287 0.16953
39.28782 0.16826
39.30300 0.16702
39.30433 0.16692
39.31938 0.16560
39.33467 0.16432
39.35019 0.16307
39.36595 0.16187
39.38194 0.16071
39.38544 0.16046
39.40143 0.15925
39.41766 0.15808
39.43413 0.15695
39.45083 0.15587
39.46776 0.15483
39.47323 0.15451
39.49027 0.15345
39.50753 0.15243
39.52502 0.15146
39.54273 0.15054
39.56066 0.14967
39.56772 0.14934
39.58581 0.14848
39.60411 0.14767
39.62260 0.14691
39.64128 0.14619
39.66014 0.14554
39.66819 0.14527
39.68723 0.14465
39.70642 0.14408
39.72576 0.14357
39.74523 0.14311
39.76482 0.14271
39.77303 0.14256
39.79275 0.14222
39.81256 0.14193
39.83244 0.14170
39.85237 0.14153
39.87235 0.14142
39.87970 0.14139
39.89971 0.14136
39.91972 0.14138
39.93971 0.14146
39.95967 0.14160
39.97958 0.14180
39.98509 0.14186
40.00490 0.14215
40.02462 0.14250
40.04424 0.14290
40.06374 0.14336
40.08311 0.14387
40.08589 0.14395
40.10503 0.14457
40.12400 0.14523
40.14278 0.14595
40.16138 0.14672
40.17928 0.14752
40.19734 0.14845
40.21516 0.14942
40.23276 0.15045
40.25010 0.15151
40.26323 0.15236
40.27992 0.15358
40.29635 0.15484
40.31250 0.15614
40.32838 0.15748
40.33665 0.15820
40.35181 0.15968
40.36670 0.16120
40.38130 0.16275
40.39562 0.16433
40.39931 0.16475
40.41289 0.16647
40.42620 0.16821
40.43923 0.16999
40.45162 0.17174
40.46364 0.17366
40.47539 0.17560
40.48689 0.17757
40.49437 0.17889
40.50489 0.18099
40.51516 0.18312
40.52520 0.18526
40.52857 0.18599
40.53766 0.18825
40.54654 0.19052
40.55521 0.19281
40.55528 0.19283
40.56304 0.19523
40.57060 0.19763
40.57556 0.19925
40.58206 0.20176
40.58840 0.20428
40.59042 0.20510
40.59572 0.20770
40.60079 0.21026
40.60495 0.21295
40.60753 0.21466
40.61060 0.21741
40.61147 0.21820
40.61333 0.22084
40.61383 0.22253
40.61367 0.22325
40.61351 0.22300
40.61402 0.22177
40.61588 0.21958
40.61932 0.21685
40.61981 0.21647
40.62429 0.21381
40.62656 0.21248
40.63208 0.20990
40.63693 0.20770
40.64352 0.20521
40.65026 0.20274
40.65179 0.20220
40.65948 0.19983
40.66736 0.19747
40.67207 0.19610
40.68092 0.19386
40.68998 0.19163
40.69877 0.18954
40.70886 0.18744
40.71916 0.18537
40.72970 0.18331
40.73297 0.18269
40.74434 0.18076
40.75596 0.17885
40.76783 0.17697
40.77573 0.17575
40.78845 0.17400
40.80143 0.17228
40.81467 0.17060
40.82804 0.16896
40.84215 0.16742
40.85653 0.16591
40.87116 0.16444
40.88606 0.16301
40.89070 0.16258
40.90620 0.16127
40.92195 0.16001
40.93794 0.15878
40.95418 0.15760
40.96412 0.15691
40.98093 0.15586
40.99795 0.15486
41.01520 0.15390
41.03265 0.15300
41.04807 0.15224
41.06600 0.15148
41.08411 0.15076
41.10239 0.15010
41.12082 0.14949
41.13940 0.14892
41.14145 0.14887
41.16023 0.14840
41.17911 0.14799
41.19809 0.14763
41.21716 0.14733
41.23630 0.14708
41.24226 0.14701
41.26149 0.14686
41.28074 0.14676
41.30001 0.14671
41.31929 0.14672
41.33856 0.14678
41.34764 0.14683
41.36687 0.14698
41.38605 0.14718
41.40517 0.14744
41.42422 0.14775
41.44318 0.14812
41.45433 0.14836
41.47314 0.14879
41.49183 0.14928
41.51040 0.14982
41.52883 0.15041
41.54711 0.15105
41.55916 0.15150
41.57723 0.15219
41.59512 0.15293
41.61284 0.15372
41.63037 0.15455
41.64771 0.15543
41.65963 0.15607
41.67675 0.15698
41.69367 0.15793
41.71038 0.15892
41.72688 0.15996
41.74316 0.16105
41.75412 0.16181
41.77023 0.16288
41.78612 0.16400
41.80179 0.16516
41.81724 0.16636
41.83247 0.16760
41.84191 0.16840
41.85705 0.16960
41.87197 0.17085
41.88668 0.17213
41.90117 0.17345
41.91543 0.17480
41.92302 0.17554
41.93731 0.17683
41.95140 0.17815
41.96528 0.17951
41.97894 0.18090
41.99240 0.18232
41.99797 0.18293
42.01158 0.18426
42.02499 0.18561
42.03820 0.18701
42.05122 0.18843
42.06404 0.18989
42.06757 0.19030
42.08066 0.19162
42.09357 0.19298
42.10629 0.19437
42.11883 0.19579
42.13119 0.19723
42.13272 0.19742
42.14545 0.19870
42.15802 0.20001
42.17041 0.20136
42.18264 0.20274
42.19433 0.20410
42.20684 0.20530
42.21919 0.20653
42.23141 0.20780
42.24347 0.20909
42.25323 0.21018
42.26562 0.21127
42.27788 0.21239
42.29001 0.21354
42.30201 0.21472
42.31018 0.21555
42.32253 0.21649
42.33477 0.21747
42.34689 0.21847
42.35891 0.21951
42.36581 0.22013
42.37815 0.22090
42.39041 0.22170
42.40257 0.22254
42.41464 0.22341
42.42065 0.22386
42.43300 0.22444
42.44528 0.22506
42.45750 0.22571
42.46964 0.22640
42.47511 0.22672
42.48746 0.22711
42.49976 0.22753
42.51202 0.22798
42.52422 0.22848
42.52950 0.22870
42.54183 0.22889
42.55415 0.22912
42.56643 0.22938
42.57869 0.22967
42.58404 0.22981
42.59635 0.22981
42.60865 0.22985
42.62095 0.22992
42.63324 0.23002
42.63886 0.23008
42.65113 0.22990
42.66342 0.22976
42.67573 0.22964
42.68804 0.22957
42.69400 0.22954
42.70623 0.22919
42.71850 0.22887
42.73081 0.22859
42.74314 0.22834
42.74944 0.22822
42.76164 0.22771
42.77389 0.22723
42.78619 0.22678
42.79854 0.22636
42.80511 0.22616
42.81727 0.22549
42.82951 0.22485
42.84181 0.22424
42.85418 0.22367
42.86086 0.22338
42.87300 0.22256
42.88522 0.22177
42.89753 0.22101
42.90992 0.22028
42.91655 0.21991
42.92865 0.21894
42.94086 0.21800
42.95318 0.21709
42.96559 0.21622
42.97198 0.21578
42.98404 0.21466
42.99623 0.21357
43.00854 0.21251
43.02098 0.21148
43.02696 0.21100
43.03897 0.20973
43.05112 0.20849
43.06341 0.20728
43.07585 0.20610
43.08128 0.20560
43.09321 0.20417
43.10530 0.20278
43.11756 0.20141
43.12998 0.20008
43.13478 0.19957
43.14659 0.19800
43.15860 0.19645
43.17079 0.19493
43.18317 0.19344
43.18725 0.19296
43.19893 0.19124
43.21081 0.18954
43.22291 0.18787
43.23522 0.18623
43.23857 0.18579
43.25007 0.18393
43.26179 0.18208
43.27376 0.18027
43.28597 0.17848
43.28857 0.17810
43.29986 0.17610
43.31141 0.17413
43.32322 0.17217
43.33530 0.17024
43.33714 0.16995
43.34820 0.16783
43.35955 0.16573
43.37118 0.16365
43.38311 0.16159
43.38416 0.16141
43.39499 0.15918
43.40612 0.15696
43.41756 0.15477
43.42934 0.15259
43.42951 0.15256
43.44009 0.15023
43.45101 0.14792
43.46227 0.14562
43.47301 0.14352
43.48337 0.14110
43.49408 0.13870
43.50517 0.13632
43.51451 0.13439
43.52464 0.13190
43.53516 0.12943
43.54609 0.12697
43.55375 0.12532
43.56366 0.12277
43.57400 0.12024
43.58477 0.11771
43.59041 0.11644
43.60010 0.11384
43.61023 0.11125
43.62085 0.10868
43.62409 0.10792
43.63350 0.10527
43.64339 0.10264
43.65380 0.10001
43.65427 0.09990
43.66331 0.09722
43.67288 0.09454
43.68038 0.09255
43.68891 0.08983
43.69796 0.08712
43.70183 0.08601
43.70960 0.08326
43.71791 0.08051
43.71816 0.08043
43.72484 0.07766
43.72919 0.07595
43.73440 0.07315
43.73532 0.07267
43.73796 0.07000
43.73806 0.07076
43.74030 0.07289
43.74534 0.07569
43.74643 0.07632
43.75317 0.07910
43.75747 0.08099
43.76552 0.08374
43.77305 0.08649
43.77380 0.08678
43.78279 0.08949
43.79126 0.09221
43.79525 0.09356
43.80490 0.09623
43.81404 0.09892
43.82137 0.10119
43.83146 0.10382
43.84106 0.10646
43.85018 0.10911
43.85155 0.10952
43.86194 0.11211
43.87187 0.11470
43.88135 0.11731
43.88522 0.11841
43.89583 0.12093
43.90601 0.12347
43.91577 0.12603
43.92187 0.12768
43.93267 0.13014
43.94306 0.13262
43.95306 0.13511
43.96111 0.13719
43.97207 0.13958
43.98265 0.14199
43.99288 0.14441
44.00262 0.14680
44.01373 0.14910
44.02450 0.15142
44.03494 0.15376
44.04507 0.15611
44.04612 0.15636
44.05739 0.15856
44.06834 0.16079
44.07900 0.16303
44.08937 0.16529
44.09147 0.16576
44.10288 0.16785
44.11402 0.16996
44.12488 0.17209
44.13547 0.17425
44.13848 0.17487
44.15004 0.17684
44.16134 0.17883
44.17239 0.18084
44.18319 0.18288
44.18705 0.18362
44.19873 0.18545
44.21017 0.18731
44.22139 0.18919
44.23239 0.19110
44.23706 0.19193
44.24883 0.19361
44.26039 0.19533
44.27175 0.19707
44.28291 0.19884
44.28837 0.19972
44.30020 0.20127
44.31185 0.20283
44.32332 0.20443
44.33460 0.20605
44.34085 0.20697
44.35271 0.20836
44.36441 0.20978
44.37596 0.21123
44.38734 0.21271
44.39434 0.21364
44.40621 0.21488
44.41794 0.21615
44.42953 0.21745
44.44098 0.21877
44.44867 0.21969
44.46052 0.22078
44.47225 0.22190
44.48386 0.22305
44.49536 0.22423
44.50364 0.22511
44.51547 0.22605
44.52719 0.22702
44.53882 0.22802
44.55033 0.22906
44.55908 0.22987
44.57087 0.23066
44.58258 0.23149
44.59420 0.23234
44.60574 0.23323
44.61477 0.23395
44.62652 0.23460
44.63821 0.23527
44.64984 0.23598
44.66139 0.23672
44.67052 0.23733
44.68225 0.23782
44.69392 0.23834
44.70555 0.23890
44.71711 0.23948
44.72619 0.23997
44.73788 0.24030
44.74955 0.24066
44.76118 0.24105
44.77277 0.24148
44.78163 0.24183
44.79330 0.24199
44.80496 0.24218
44.81660 0.24241
44.82821 0.24267
44.83677 0.24288
44.84842 0.24286
44.86006 0.24287
44.87171 0.24292
44.88334 0.24300
44.89158 0.24307
44.90319 0.24286
44.91482 0.24268
44.92646 0.24254
44.93812 0.24243
44.94612 0.24237
44.95768 0.24196
44.96928 0.24159
44.98091 0.24125
44.99257 0.24094
45.00052 0.24075
45.01201 0.24014
45.02356 0.23957
45.03516 0.23902
45.04681 0.23852
45.05497 0.23818
45.06638 0.23738
45.07787 0.23661
45.08943 0.23588
45.10106 0.23518
45.10981 0.23467
45.12115 0.23370
45.13258 0.23275
45.14411 0.23184
45.15572 0.23095
45.16544 0.23024
45.17673 0.22911
45.18814 0.22801
45.19965 0.22694
45.21126 0.22591
45.22239 0.22495
45.23370 0.22369
45.24513 0.22247
45.25668 0.22127
45.26836 0.22011
45.28016 0.21897
45.28130 0.21887
45.29271 0.21752
45.30426 0.21621
45.31594 0.21492
45.32777 0.21367
45.33974 0.21244
45.34291 0.21212
45.35454 0.21073
45.36632 0.20936
45.37826 0.20802
45.39036 0.20671
45.40260 0.20543
45.40806 0.20488
45.42006 0.20346
45.43222 0.20208
45.44456 0.20073
45.45705 0.19941
45.46972 0.19812
45.47766 0.19733
45.49019 0.19594
45.50289 0.19458
45.51578 0.19326
45.52884 0.19196
45.54207 0.19070
45.55261 0.18974
45.56583 0.18841
45.57923 0.18712
45.59282 0.18586
45.60658 0.18464
45.62053 0.18345
45.63373 0.18238
45.64777 0.18116
45.66200 0.17998
45.67642 0.17883
45.69102 0.17773
45.70580 0.17666
45.72076 0.17563
45.72151 0.17558
45.73648 0.17452
45.75163 0.17349
45.76695 0.17251
45.78245 0.17156
45.79812 0.17066
45.81395 0.16980
45.81600 0.16969
45.83191 0.16882
45.84797 0.16800
45.86419 0.16722
45.88056 0.16648
45.89707 0.16579
45.91371 0.16515
45.91647 0.16505
45.93321 0.16442
45.95008 0.16384
45.96706 0.16331
45.98415 0.16282
46.00134 0.16239
46.01861 0.16200
46.02131 0.16194
46.03866 0.16159
46.05608 0.16130
46.07356 0.16105
46.09109 0.16085
46.10866 0.16070
46.12626 0.16060
46.12798 0.16059
46.14560 0.16056
46.16321 0.16057
46.18082 0.16063
46.19841 0.16074
46.21597 0.16090
46.23336 0.16111
46.25081 0.16139
46.26820 0.16173
46.28551 0.16211
46.30273 0.16254
46.31985 0.16302
46.33417 0.16346
46.35104 0.16407
46.36778 0.16472
46.38438 0.16542
46.40083 0.16617
46.41714 0.16696
46.42756 0.16749
46.44348 0.16842
46.45923 0.16938
46.47479 0.17038
46.49017 0.17143
46.50536 0.17251
46.51151 0.17297
46.52623 0.17418
46.54075 0.17543
46.55506 0.17671
46.56917 0.17803
46.58306 0.17939
46.58492 0.17958
46.59831 0.18105
46.61147 0.18256
46.62442 0.18409
46.63716 0.18566
46.64759 0.18699
46.65958 0.18870
46.67136 0.19043
46.68293 0.19220
46.69428 0.19398
46.69990 0.19489
46.71052 0.19681
46.72094 0.19875
46.73115 0.20071
46.74116 0.20269
46.74265 0.20298
46.75195 0.20508
46.76106 0.20720
46.76998 0.20933
46.77685 0.21101
46.78490 0.21327
46.79277 0.21554
46.80048 0.21782
46.80356 0.21875
46.81042 0.22114
46.81714 0.22354
46.82372 0.22595
46.82384 0.22600
46.82960 0.22850
46.83523 0.23102
46.83870 0.23260
46.84340 0.23521
46.84800 0.23782
46.84907 0.23843
46.85277 0.24112
46.85582 0.24338
46.85854 0.24613
46.85974 0.24737
46.86150 0.25016
46.86161 0.25033
46.86212 0.25222
46.86195 0.25300
46.86179 0.25268
46.86230 0.25126
46.86416 0.24875
46.86717 0.24602
46.86809 0.24519
46.87201 0.24253
46.87484 0.24065
46.87968 0.23807
46.88463 0.23550
46.88521 0.23520
46.89099 0.23272
46.89691 0.23024
46.90006 0.22894
46.90683 0.22657
46.91374 0.22421
46.92035 0.22201
46.92814 0.21977
46.93610 0.21754
46.94421 0.21532
46.94706 0.21456
46.95593 0.21246
46.96499 0.21038
46.97422 0.20831
46.98125 0.20678
46.99127 0.20484
47.00148 0.20293
47.01189 0.20104
47.02249 0.19916
47.02400 0.19890
47.03522 0.19715
47.04664 0.19542
47.05826 0.19372
47.07008 0.19205
47.07632 0.19119
47.08877 0.18965
47.10142 0.18813
47.11427 0.18665
47.12733 0.18520
47.13898 0.18395
47.15266 0.18264
47.16653 0.18137
47.18060 0.18013
47.19485 0.17892
47.20930 0.17776
47.21240 0.17751
47.22723 0.17646
47.24224 0.17545
47.25743 0.17448
47.27277 0.17355
47.28828 0.17266
47.29635 0.17221
47.31219 0.17144
47.32817 0.17072
47.34428 0.17004
47.36052 0.16940
47.37687 0.16881
47.38974 0.16838
47.40632 0.16791
47.42300 0.16748
47.43976 0.16711
47.45659 0.16678
47.47348 0.16650
47.49042 0.16626
47.49054 0.16626
47.50753 0.16610
47.52455 0.16599
47.54159 0.16592
47.55864 0.16591
47.57569 0.16594
47.59272 0.16602
47.59592 0.16604
47.61293 0.16618
47.62990 0.16637
47.64683 0.16661
47.66370 0.16689
47.68052 0.16723
47.69726 0.16761
47.70260 0.16774
47.71924 0.16817
47.73580 0.16864
47.75226 0.16916
47.76862 0.16973
47.78486 0.17034
47.80098 0.17100
47.80744 0.17127
47.82343 0.17196
47.83929 0.17268
47.85502 0.17346
47.87060 0.17427
47.88603 0.17512
47.90131 0.17602
47.90790 0.17642
47.92307 0.17732
47.93807 0.17826
47.95291 0.17924
47.96759 0.18026
47.98210 0.18132
47.99644 0.18241
48.00239 0.18288
48.01666 0.18396
48.03077 0.18506
48.04470 0.18621
48.05845 0.18739
48.07204 0.18861
48.08544 0.18986
48.09019 0.19031
48.10360 0.19151
48.11685 0.19275
48.12993 0.19401
48.14284 0.19531
48.15557 0.19664
48.16813 0.19801
48.17130 0.19836
48.18397 0.19964
48.19647 0.20095
48.20882 0.20230
48.22099 0.20367
48.23301 0.20508
48.24485 0.20651
48.24625 0.20668
48.25831 0.20800
48.27022 0.20935
48.28198 0.21073
48.29358 0.21214
48.30502 0.21358
48.31585 0.21498
48.32745 0.21630
48.33891 0.21765
48.35023 0.21903
48.36141 0.22043
48.37244 0.22186
48.38100 0.22300
48.39228 0.22428
48.40344 0.22558
48.41447 0.22692
48.42536 0.22828
48.43613 0.22966
48.44260 0.23052
48.45369 0.23171
48.46466 0.23294
48.47552 0.23419
48.48626 0.23547
48.49689 0.23678
48.50151 0.23736
48.51250 0.23844
48.52338 0.23955
48.53417 0.24069
48.54485 0.24186
48.55543 0.24305
48.55846 0.24340
48.56941 0.24433
48.58027 0.24530
48.59104 0.24629
48.60173 0.24731
48.61233 0.24836
48.61410 0.24854
48.62504 0.24930
48.63591 0.25010
48.64671 0.25092
48.65744 0.25177
48.66810 0.25265
48.66893 0.25272
48.67988 0.25330
48.69077 0.25391
48.70161 0.25454
48.71240 0.25521
48.72312 0.25590
48.72339 0.25592
48.73434 0.25630
48.74525 0.25671
48.75612 0.25715
48.76695 0.25762
48.77775 0.25813
48.77778 0.25813
48.78871 0.25831
48.79962 0.25853
48.81052 0.25877
48.82139 0.25905
48.83224 0.25935
48.83232 0.25935
48.84322 0.25935
48.85413 0.25937
48.86503 0.25942
48.87593 0.25951
48.88682 0.25963
48.88713 0.25963
48.89801 0.25944
48.90890 0.25928
48.91980 0.25916
48.93071 0.25906
48.94162 0.25899
48.94228 0.25899
48.95311 0.25863
48.96398 0.25830
48.97488 0.25800
48.98580 0.25773
48.99674 0.25749
48.99772 0.25747
49.00852 0.25695
49.01937 0.25645
49.03026 0.25599
49.04119 0.25556
49.05215 0.25516
49.05338 0.25511
49.06416 0.25443
49.07499 0.25378
49.08588 0.25316
49.09682 0.25257
49.10781 0.25201
49.10914 0.25195
49.11989 0.25112
49.13071 0.25032
49.14159 0.24955
49.15255 0.24880
49.16356 0.24809
49.16483 0.24801
49.17555 0.24703
49.18635 0.24608
49.19724 0.24516
49.20820 0.24427
49.21925 0.24340
49.22026 0.24332
49.23095 0.24220
49.24173 0.24109
49.25261 0.24002
49.26358 0.23898
49.27465 0.23796
49.27524 0.23791
49.28587 0.23663
49.29662 0.23538
49.30748 0.23415
49.31845 0.23296
49.32953 0.23179
49.32957 0.23178
49.34013 0.23035
49.35082 0.22895
49.36164 0.22757
49.37259 0.22622
49.38305 0.22497
49.39352 0.22339
49.40413 0.22183
49.41489 0.22030
49.42579 0.21880
49.43553 0.21749
49.44587 0.21577
49.45637 0.21406
49.46703 0.21238
49.47787 0.21072
49.48685 0.20939
49.49702 0.20752
49.50738 0.20567
49.51793 0.20384
49.52867 0.20204
49.53685 0.20070
49.54684 0.19870
49.55704 0.19671
49.56744 0.19475
49.57805 0.19281
49.58543 0.19149
49.59522 0.18937
49.60523 0.18726
49.61547 0.18517
49.62594 0.18310
49.63244 0.18185
49.64202 0.17961
49.65184 0.17739
49.66191 0.17519
49.67224 0.17301
49.67778 0.17186
49.68715 0.16953
49.69678 0.16721
49.70668 0.16491
49.71685 0.16262
49.72130 0.16165
49.73046 0.15923
49.73990 0.15683
49.74964 0.15444
49.75968 0.15207
49.76279 0.15136
49.77175 0.14887
49.78102 0.14639
49.79061 0.14393
49.80053 0.14148
49.80203 0.14112
49.81080 0.13857
49.81990 0.13603
49.82935 0.13351
49.83869 0.13111
49.84726 0.12851
49.85618 0.12592
49.86548 0.12334
49.87237 0.12150
49.88069 0.11886
49.88939 0.11622
49.89849 0.11359
49.90254 0.11246
49.91054 0.10978
49.91895 0.10710
49.92778 0.10443
49.92865 0.10417
49.93619 0.10145
49.94415 0.09874
49.95010 0.09680
49.95697 0.09405
49.96426 0.09131
49.96643 0.09052
49.97234 0.08774
49.97747 0.08546
49.98207 0.08266
49.98361 0.08177
49.98605 0.07894
49.98622 0.07875
49.98633 0.07960
49.98859 0.08198
49.99309 0.08478
49.99470 0.08584
50.00073 0.08862
50.00575 0.09107
50.01294 0.09382
50.01972 0.09658
50.02207 0.09757
50.03011 0.10028
50.03773 0.10300
50.04354 0.10518
50.05216 0.10786
50.06036 0.11054
50.06817 0.11323
50.06964 0.11375
50.07865 0.11638
50.08727 0.11902
50.09551 0.12167
50.09982 0.12311
50.10910 0.12569
50.11801 0.12828
50.12656 0.13088
50.13349 0.13308
50.14297 0.13560
50.15210 0.13814
50.16090 0.14069
50.16938 0.14325
50.17016 0.14348
50.17979 0.14595
50.18910 0.14842
50.19811 0.15091
50.20682 0.15340
50.20939 0.15416
50.21917 0.15655
50.22865 0.15895
50.23785 0.16136
50.24678 0.16379
50.25089 0.16494
50.26081 0.16724
50.27045 0.16955
50.27984 0.17188
50.28897 0.17423
50.29441 0.17566
50.30446 0.17786
50.31427 0.18008
50.32383 0.18231
50.33317 0.18456
50.33974 0.18619
50.34993 0.18828
50.35990 0.19039
50.36964 0.19252
50.37917 0.19466
50.38676 0.19641
50.39708 0.19838
50.40719 0.20036
50.41710 0.20237
50.42681 0.20439
50.43534 0.20622
50.44576 0.20805
50.45599 0.20990
50.46604 0.21177
50.47592 0.21366
50.48534 0.21552
50.49584 0.21720
50.50617 0.21891
50.51635 0.22065
50.52636 0.22240
50.53622 0.22418
50.53665 0.22426
50.54721 0.22579
50.55761 0.22735
50.56788 0.22894
50.57801 0.23055
50.58799 0.23218
50.58913 0.23237
50.59971 0.23376
50.61016 0.23517
50.62049 0.23660
50.63070 0.23807
50.64077 0.23955
50.64262 0.23983
50.65320 0.24106
50.66368 0.24232
50.67405 0.24361
50.68430 0.24492
50.69445 0.24626
50.69694 0.24660
50.70752 0.24768
50.71799 0.24879
50.72838 0.24993
50.73867 0.25109
50.74886 0.25228
50.75192 0.25265
50.76247 0.25358
50.77294 0.25455
50.78333 0.25554
50.79363 0.25656
50.80386 0.25760
50.80736 0.25797
50.81787 0.25875
50.82832 0.25957
50.83871 0.26041
50.84902 0.26128
50.85927 0.26218
50.86304 0.26252
50.87353 0.26316
50.88396 0.26382
50.89434 0.26452
50.90466 0.26524
50.91493 0.26599
50.91880 0.26628
50.92926 0.26677
50.93968 0.26728
50.95005 0.26782
50.96039 0.26839
50.97068 0.26899
50.97447 0.26922
50.98490 0.26954
50.99530 0.26989
51.00568 0.27027
51.01603 0.27068
51.02634 0.27112
51.02991 0.27128
51.04032 0.27143
51.05071 0.27161
51.06109 0.27182
51.07146 0.27207
51.08180 0.27234
51.08505 0.27243
51.09543 0.27240
51.10582 0.27240
51.11620 0.27243
51.12658 0.27249
51.13695 0.27258
51.13986 0.27261
51.15021 0.27240
51.16058 0.27221
51.17095 0.27205
51.18134 0.27192
51.19174 0.27182
51.19440 0.27180
51.20470 0.27138
51.21504 0.27100
51.22540 0.27064
51.23578 0.27032
51.24620 0.27002
51.24879 0.26995
51.25903 0.26934
51.26932 0.26875
51.27965 0.26820
51.29002 0.26767
51.30043 0.26717
51.30325 0.26704
51.31342 0.26624
51.32365 0.26546
51.33394 0.26471
51.34429 0.26399
51.35469 0.26330
51.35809 0.26308
51.36819 0.26210
51.37837 0.26115
51.38862 0.26022
51.39895 0.25932
51.40934 0.25845
51.41372 0.25809
51.42378 0.25696
51.43393 0.25585
51.44417 0.25477
51.45449 0.25371
51.46490 0.25268
51.47068 0.25213
51.48075 0.25087
51.49092 0.24964
51.50119 0.24843
51.51156 0.24725
51.52203 0.24610
51.52958 0.24529
51.53974 0.24394
51.55002 0.24262
51.56041 0.24132
51.57090 0.24005
51.58151 0.23881
51.59119 0.23771
51.60155 0.23631
51.61204 0.23493
51.62265 0.23358
51.63338 0.23226
51.64424 0.23096
51.65521 0.22969
51.65634 0.22956
51.66703 0.22815
51.67786 0.22676
51.68882 0.22539
51.69991 0.22405
51.71114 0.22275
51.72249 0.22147
51.72594 0.22109
51.73710 0.21969
51.74841 0.21833
51.75986 0.21699
51.77145 0.21568
51.78318 0.21440
51.79505 0.21315
51.80089 0.21255
51.81267 0.21122
51.82460 0.20992
51.83668 0.20866
51.84891 0.20742
51.86128 0.20621
51.87379 0.20504
51.88200 0.20429
51.89453 0.20307
51.90721 0.20188
51.92003 0.20072
51.93300 0.19960
51.94611 0.19851
51.95937 0.19746
51.96979 0.19666
51.98314 0.19559
51.99664 0.19455
52.01028 0.19356
52.02405 0.19259
52.03796 0.19167
52.05201 0.19078
52.06428 0.19004
52.07847 0.18917
52.09279 0.18834
52.10723 0.18754
52.12179 0.18679
52.13647 0.18607
52.15126 0.18540
52.16475 0.18482
52.17969 0.18419
52.19473 0.18360
52.20987 0.18305
52.22509 0.18255
52.24040 0.18208
52.25578 0.18166
52.26958 0.18132
52.28508 0.18097
52.30063 0.18066
52.31622 0.18040
52.33187 0.18018
52.34754 0.18000
52.36324 0.17987
52.37627 0.17980
52.39200 0.17975
52.40773 0.17976
52.42346 0.17980
52.43918 0.17989
52.45488 0.18003
52.47055 0.18020
52.48164 0.18036
52.49723 0.18064
52.51278 0.18096
52.52826 0.18133
52.54368 0.18174
52.55902 0.18219
52.57428 0.18269
52.58245 0.18297
52.59752 0.18357
52.61250 0.18422
52.62737 0.18491
52.64212 0.18563
52.65676 0.18640
52.67127 0.18721
52.67584 0.18747
52.69008 0.18838
52.70417 0.18934
52.71813 0.19033
52.73194 0.19136
52.74560 0.19242
52.75910 0.19352
52.75978 0.19358
52.77296 0.19478
52.78597 0.19602
52.79881 0.19729
52.81149 0.19860
52.82400 0.19993
52.83320 0.20095
52.84519 0.20242
52.85699 0.20392
52.86862 0.20545
52.88008 0.20700
52.89137 0.20858
52.89587 0.20922
52.90661 0.21093
52.91717 0.21266
52.92757 0.21441
52.93780 0.21619
52.94785 0.21799
52.94818 0.21804
52.95769 0.21996
52.96704 0.22189
52.97622 0.22384
52.98525 0.22581
52.99093 0.22708
52.99926 0.22917
53.00744 0.23128
53.01547 0.23341
53.02336 0.23555
53.02513 0.23603
53.03234 0.23829
53.03942 0.24055
53.04637 0.24283
53.05184 0.24466
53.05800 0.24705
53.06404 0.24945
53.06997 0.25186
53.07212 0.25274
53.07729 0.25525
53.08235 0.25776
53.08698 0.26011
53.09120 0.26271
53.09534 0.26532
53.09734 0.26660
53.10067 0.26929
53.10393 0.27197
53.10409 0.27211
53.10655 0.27486
53.10803 0.27654
53.10962 0.27933
53.10989 0.27982
53.11040 0.28190
53.11023 0.28276
53.11007 0.28237
53.11058 0.28075
53.11240 0.27797
53.11244 0.27792
53.11511 0.27519
53.11637 0.27392
53.11986 0.27125
53.12312 0.26882
53.12743 0.26624
53.13184 0.26366
53.13349 0.26271
53.13865 0.26022
53.14391 0.25774
53.14834 0.25569
53.15438 0.25332
53.16054 0.25095
53.16681 0.24860
53.16862 0.24793
53.17558 0.24568
53.18267 0.24344
53.18989 0.24122
53.19534 0.23958
53.20327 0.23748
53.21134 0.23539
53.21956 0.23332
53.22792 0.23126
53.22953 0.23087
53.23849 0.22893
53.24760 0.22701
53.25686 0.22511
53.26628 0.22323
53.27229 0.22205
53.28232 0.22030
53.29250 0.21857
53.30285 0.21686
53.31337 0.21517
53.32405 0.21351
53.32460 0.21343
53.33573 0.21188
53.34703 0.21036
53.35849 0.20886
53.37011 0.20740
53.38190 0.20596
53.38726 0.20532
53.39950 0.20401
53.41189 0.20273
53.42444 0.20148
53.43714 0.20026
53.45000 0.19907
53.46068 0.19812
53.47396 0.19706
53.48738 0.19604
53.50094 0.19506
53.51463 0.19411
53.52846 0.19320
53.54241 0.19232
53.54463 0.19219
53.55881 0.19141
53.57311 0.19068
53.58751 0.18998
53.60202 0.18933
53.61662 0.18871
53.63132 0.18813
53.63802 0.18789
53.65288 0.18741
53.66781 0.18698
53.68281 0.18659
53.69786 0.18624
53.71297 0.18593
53.72813 0.18567
53.73882 0.18551
53.75405 0.18534
53.76930 0.18522
53.78457 0.18514
53.79984 0.18510
53.81512 0.18511
53.83040 0.18516
53.84420 0.18524
53.85945 0.18538
53.87467 0.18556
53.88985 0.18578
53.90500 0.18605
53.92010 0.18636
53.93514 0.18671
53.95013 0.18710
53.95088 0.18712
53.96581 0.18755
53.98066 0.18801
53.99544 0.18852
54.01014 0.18907
54.02475 0.18965
54.03927 0.19028
54.05369 0.19095
54.05571 0.19105
54.07006 0.19173
54.08430 0.19245
54.09844 0.19320
54.11246 0.19400
54.12636 0.19483
54.14014 0.19570
54.15380 0.19661
54.15618 0.19677
54.16979 0.19767
54.18327 0.19860
54.19662 0.19957
54.20984 0.20057
54.22292 0.20161
54.23587 0.20268
54.24868 0.20378
54.25067 0.20396
54.26348 0.20503
54.27615 0.20613
54.28869 0.20726
54.30109 0.20843
54.31335 0.20963
54.32546 0.21086
54.33744 0.21212
54.33846 0.21223
54.35051 0.21342
54.36242 0.21465
54.37419 0.21590
54.38583 0.21719
54.39732 0.21850
54.40868 0.21985
54.41957 0.22118
54.43095 0.22245
54.44219 0.22376
54.45331 0.22509
54.46429 0.22646
54.47513 0.22784
54.48585 0.22926
54.49453 0.23044
54.50536 0.23175
54.51607 0.23310
54.52665 0.23447
54.53711 0.23586
54.54745 0.23729
54.55766 0.23873
54.56413 0.23967
54.57455 0.24099
54.58485 0.24233
54.59505 0.24369
54.60512 0.24508
54.61509 0.24650
54.62494 0.24794
54.62928 0.24859
54.63941 0.24986
54.64945 0.25116
54.65937 0.25248
54.66920 0.25383
54.67892 0.25520
54.68853 0.25659
54.69088 0.25694
54.70084 0.25813
54.71071 0.25935
54.72048 0.26059
54.73016 0.26186
54.73975 0.26315
54.74924 0.26447
54.74979 0.26454
54.75966 0.26562
54.76944 0.26672
54.77915 0.26785
54.78877 0.26900
54.79831 0.27018
54.80674 0.27125
54.81657 0.27218
54.82634 0.27313
54.83603 0.27411
54.84565 0.27512
54.85521 0.27615
54.86237 0.27695
54.87220 0.27771
54.88197 0.27849
54.89169 0.27931
54.90134 0.28014
54.91094 0.28101
54.91721 0.28159
54.92704 0.28216
54.93683 0.28275
54.94657 0.28338
54.95627 0.28403
54.96593 0.28471
54.97167 0.28512
54.98150 0.28550
54.99130 0.28590
55.00107 0.28633
55.01081 0.28678
55.02052 0.28727
55.02606 0.28755
55.03587 0.28773
55.04567 0.28794
55.05546 0.28817
55.06523 0.28843
55.07498 0.28872
55.08060 0.28890
55.09039 0.28888
55.10018 0.28890
55.10997 0.28894
55.11975 0.28901
55.12953 0.28910
55.13541 0.28918
55.14518 0.28898
55.15495 0.28881
55.16473 0.28867
55.17452 0.28856
55.18432 0.28847
55.19055 0.28844
55.20028 0.28807
55.21004 0.28773
55.21981 0.28742
55.22961 0.28713
55.23942 0.28687
55.24600 0.28672
55.25570 0.28619
55.26543 0.28569
55.27520 0.28521
55.28500 0.28476
55.29483 0.28434
55.30166 0.28407
55.31134 0.28338
55.32105 0.28272
55.33082 0.28209
55.34062 0.28149
55.35047 0.28091
55.35742 0.28052
55.36706 0.27968
55.37677 0.27887
55.38653 0.27809
55.39634 0.27733
55.40621 0.27660
55.41311 0.27611
55.42273 0.27512
55.43242 0.27417
55.44217 0.27323
55.45199 0.27232
55.46188 0.27144
55.46854 0.27087
55.47813 0.26973
55.48779 0.26862
55.49754 0.26754
55.50736 0.26648
55.51726 0.26545
55.52352 0.26481
55.53306 0.26353
55.54269 0.26227
55.55241 0.26104
55.56223 0.25983
55.57214 0.25864
55.57784 0.25797
55.58732 0.25654
55.59690 0.25513
55.60659 0.25374
55.61638 0.25238
55.62628 0.25104
55.63133 0.25037
55.64072 0.24878
55.65023 0.24722
55.65985 0.24568
55.66960 0.24416
55.67947 0.24267
55.68381 0.24203
55.69309 0.24029
55.70249 0.23858
55.71203 0.23689
55.72171 0.23522
55.73152 0.23358
55.73512 0.23299
55.74425 0.23111
55.75353 0.22926
55.76296 0.22742
55.77254 0.22561
55.78227 0.22382
55.78513 0.22330
55.79409 0.22129
55.80322 0.21930
55.81251 0.21733
55.82198 0.21538
55.83161 0.21345
55.83370 0.21304
55.84248 0.21091
55.85144 0.20879
55.86059 0.20670
55.86991 0.20462
55.87943 0.20256
55.88072 0.20229
55.88931 0.20005
55.89810 0.19782
55.90708 0.19561
55.91627 0.19342
55.92567 0.19125
55.92606 0.19116
55.93446 0.18882
55.94307 0.18650
55.95190 0.18420
55.96095 0.18190
55.96957 0.17979
55.97779 0.17737
55.98624 0.17496
55.99491 0.17257
56.00384 0.17019
56.01107 0.16832
56.01911 0.16583
56.02740 0.16335
56.03594 0.16089
56.04474 0.15843
56.05030 0.15693
56.05817 0.15438
56.06630 0.15184
56.07471 0.14931
56.08340 0.14679
56.08697 0.14578
56.09465 0.14318
56.10262 0.14059
56.11088 0.13801
56.11946 0.13543
56.12065 0.13508
56.12811 0.13244
56.13588 0.12980
56.14397 0.12717
56.15083 0.12503
56.15800 0.12234
56.16549 0.11966
56.17333 0.11699
56.17694 0.11580
56.18370 0.11308
56.19079 0.11036
56.19823 0.10765
56.19839 0.10760
56.20454 0.10485
56.21103 0.10210
56.21471 0.10060
56.22001 0.09782
56.22561 0.09505
56.22575 0.09497
56.22986 0.09217
56.23188 0.09086
56.23408 0.08804
56.23452 0.08750
56.23461 0.08844
56.23686 0.09107
56.24094 0.09388
56.24299 0.09535
56.24843 0.09813
56.25358 0.10091
56.25403 0.10116
56.26053 0.10391
56.26670 0.10666
56.27036 0.10836
56.27762 0.11108
56.28454 0.11380
56.29113 0.11652
56.29181 0.11681
56.29960 0.11948
56.30705 0.12216
56.31418 0.12485
56.31792 0.12631
56.32606 0.12894
56.33388 0.13158
56.34139 0.13423
56.34810 0.13669
56.35648 0.13927
56.36456 0.14186
56.37235 0.14446
56.37986 0.14707
56.38177 0.14775
56.39033 0.15027
56.39861 0.15281
56.40661 0.15535
56.41436 0.15791
56.41844 0.15929
56.42714 0.16175
56.43558 0.16422
56.44377 0.16670
56.45171 0.16920
56.45768 0.17112
56.46650 0.17351
56.47509 0.17591
56.48345 0.17832
56.49158 0.18074
56.49917 0.18307
56.50812 0.18537
56.51686 0.18768
56.52538 0.19001
56.53369 0.19235
56.54181 0.19470
56.54268 0.19496
56.55176 0.19716
56.56064 0.19937
56.56932 0.20160
56.57781 0.20385
56.58611 0.20610
56.58802 0.20663
56.59722 0.20872
56.60623 0.21082
56.61507 0.21294
56.62373 0.21508
56.63223 0.21723
56.63504 0.21795
56.64435 0.21991
56.65349 0.22189
56.66248 0.22389
56.67130 0.22591
56.67996 0.22794
56.68361 0.22881
56.69302 0.23064
56.70227 0.23248
56.71138 0.23435
56.72035 0.23623
56.72917 0.23814
56.73362 0.23912
56.74310 0.24080
56.75244 0.24250
56.76166 0.24422
56.77074 0.24597
56.77970 0.24773
56.78493 0.24879
56.79445 0.25032
56.80386 0.25187
56.81316 0.25345
56.82233 0.25505
56.83139 0.25667
56.83741 0.25777
56.84696 0.25915
56.85641 0.26055
56.86575 0.26198
56.87500 0.26343
56.88414 0.26490
56.89090 0.26602
56.90045 0.26725
56.90992 0.26850
56.91929 0.26978
56.92858 0.27108
56.93778 0.27240
56.94523 0.27350
56.95477 0.27458
56.96423 0.27568
56.97362 0.27681
56.98293 0.27796
56.99217 0.27914
57.00021 0.28019
57.00972 0.28112
57.01918 0.28208
57.02857 0.28306
57.03789 0.28406
57.04715 0.28509
57.05564 0.28606
57.06513 0.28685
57.07456 0.28765
57.08395 0.28849
57.09327 0.28934
57.10255 0.29023
57.11132 0.29109
57.12078 0.29172
57.13020 0.29238
57.13958 0.29306
57.14891 0.29377
57.15820 0.29451
57.16708 0.29524
57.17651 0.29571
57.18592 0.29622
57.19529 0.29675
57.20463 0.29730
57.21393 0.29789
57.22275 0.29846
57.23216 0.29878
57.24155 0.29912
57.25092 0.29949
57.26026 0.29989
57.26958 0.30031
57.27819 0.30072
57.28758 0.30087
57.29696 0.30104
57.30633 0.30124
57.31568 0.30147
57.32502 0.30172
57.33333 0.30197
57.34269 0.30194
57.35206 0.30193
57.36143 0.30195
57.37079 0.30200
57.38016 0.30207
57.38814 0.30215
57.39748 0.30193
57.40683 0.30173
57.41619 0.30156
57.42556 0.30142
57.43493 0.30130
57.44268 0.30123
57.45198 0.30081
57.46129 0.30041
57.47063 0.30004
57.48000 0.29970
57.48938 0.29939
57.49707 0.29915
57.50631 0.29853
57.51558 0.29794
57.52489 0.29737
57.53424 0.29683
57.54362 0.29632
57.55153 0.29590
57.56070 0.29509
57.56992 0.29431
57.57919 0.29355
57.58851 0.29282
57.59787 0.29211
57.60637 0.29149
57.61548 0.29051
57.62465 0.28954
57.63388 0.28861
57.64318 0.28770
57.65253 0.28681
57.66193 0.28595
57.66200 0.28594
57.67107 0.28480
57.68022 0.28369
57.68943 0.28259
57.69872 0.28153
57.70808 0.28048
57.71750 0.27947
57.71895 0.27931
57.72804 0.27805
57.73720 0.27681
57.74645 0.27559
57.75577 0.27440
57.76518 0.27323
57.77467 0.27209
57.77786 0.27171
57.78703 0.27036
57.79628 0.26903
57.80563 0.26772
57.81507 0.26644
57.82460 0.26518
57.83422 0.26395
57.83947 0.26329
57.84881 0.26188
57.85826 0.26050
57.86781 0.25914
57.87746 0.25781
57.88720 0.25650
57.89705 0.25521
57.90462 0.25425
57.91426 0.25283
57.92402 0.25143
57.93388 0.25006
57.94385 0.24871
57.95393 0.24739
57.96411 0.24609
57.97421 0.24484
57.98429 0.24344
57.99447 0.24207
58.00478 0.24072
58.01520 0.23940
58.02573 0.23811
58.03638 0.23684
58.04714 0.23560
58.04917 0.23537
58.05980 0.23404
58.07055 0.23273
58.08142 0.23146
58.09241 0.23020
58.10352 0.22898
58.11475 0.22779
58.12609 0.22662
58.13028 0.22620
58.14158 0.22498
58.15300 0.22378
58.16455 0.22262
58.17621 0.22148
58.18800 0.22037
58.19990 0.21930
58.21191 0.21825
58.21807 0.21773
58.23012 0.21666
58.24229 0.21562
58.25457 0.21461
58.26697 0.21363
58.27947 0.21269
58.29209 0.21178
58.30482 0.21090
58.31256 0.21039
58.32536 0.20952
58.33828 0.20867
58.35130 0.20787
58.36441 0.20710
58.37763 0.20636
58.39093 0.20566
58.40432 0.20500
58.41302 0.20459
58.42652 0.20396
58.44009 0.20336
58.45374 0.20280
58.46747 0.20228
58.48126 0.20180
58.49512 0.20135
58.50903 0.20094
58.51787 0.20071
58.53186 0.20035
58.54590 0.20004
58.55998 0.19976
58.57410 0.19952
58.58825 0.19933
58.60242 0.19917
58.61661 0.19905
58.62454 0.19900
58.63875 0.19895
58.65297 0.19895
58.66719 0.19898
58.68139 0.19905
58.69559 0.19916
58.70976 0.19932
58.72391 0.19951
58.72992 0.19960
58.74401 0.19988
58.75806 0.20020
58.77207 0.20055
58.78602 0.20094
58.79991 0.20138
58.81375 0.20185
58.82751 0.20236
58.83073 0.20248
58.84436 0.20308
58.85791 0.20372
58.87137 0.20439
58.88474 0.20510
58.89802 0.20585
58.91119 0.20663
58.92412 0.20744
58.93700 0.20835
58.94976 0.20930
58.96241 0.21028
58.97494 0.21129
58.98734 0.21234
58.99963 0.21342
59.00806 0.21418
59.01998 0.21539
59.03177 0.21662
59.04342 0.21788
59.05493 0.21917
59.06631 0.22049
59.07755 0.22184
59.08148 0.22232
59.09233 0.22379
59.10303 0.22528
59.11358 0.22680
59.12400 0.22834
59.13428 0.22991
59.14414 0.23146
59.15387 0.23316
59.16345 0.23489
59.17289 0.23663
59.18219 0.23840
59.19136 0.24018
59.19646 0.24120
59.20507 0.24311
59.21355 0.24503
59.22190 0.24698
59.23011 0.24894
59.23820 0.25092
59.23921 0.25117
59.24676 0.25326
59.25418 0.25537
59.26148 0.25749
59.26866 0.25962
59.27341 0.26106
59.27994 0.26331
59.28637 0.26557
59.29269 0.26784
59.29890 0.27012
59.30012 0.27058
59.30570 0.27296
59.31119 0.27536
59.31658 0.27776
59.32040 0.27949
59.32508 0.28200
59.32969 0.28451
59.33421 0.28702
59.33526 0.28761
59.33909 0.29021
59.34286 0.29282
59.34562 0.29477
59.34864 0.29745
59.35161 0.30014
59.35237 0.30083
59.35460 0.30358
59.35630 0.30571
59.35775 0.30850
59.35816 0.30931
59.35867 0.31159
59.35851 0.31251
59.35835 0.31206
59.35885 0.31024
59.36050 0.30746
59.36072 0.30709
59.36312 0.30435
59.36465 0.30264
59.36779 0.29998
59.37099 0.29732
59.37140 0.29699
59.37529 0.29440
59.37925 0.29182
59.38176 0.29021
59.38642 0.28772
59.39116 0.28524
59.39598 0.28277
59.39662 0.28244
59.40208 0.28006
59.40762 0.27770
59.41326 0.27534
59.41690 0.27384
59.42319 0.27159
59.42958 0.26935
59.43608 0.26713
59.44269 0.26491
59.44361 0.26460
59.45078 0.26250
59.45806 0.26041
59.46546 0.25833
59.47298 0.25627
59.47781 0.25496
59.48591 0.25302
59.49413 0.25110
59.50247 0.24919
59.51095 0.24730
59.51955 0.24543
59.52057 0.24521
59.52963 0.24345
59.53883 0.24171
59.54817 0.24000
59.55763 0.23830
59.56723 0.23662
59.57287 0.23566
59.58295 0.23411
59.59315 0.23258
59.60349 0.23108
59.61396 0.22961
59.62457 0.22815
59.63531 0.22673
59.63554 0.22670
59.64661 0.22538
59.65781 0.22409
59.66914 0.22283
59.68059 0.22160
59.69218 0.22040
59.70389 0.21922
59.70896 0.21873
59.72098 0.21767
59.73311 0.21664
59.74536 0.21564
59.75772 0.21468
59.77019 0.21375
59.78277 0.21285
59.79290 0.21216
59.80574 0.21138
59.81867 0.21064
59.83170 0.20993
59.84481 0.20926
59.85800 0.20863
59.87127 0.20803
59.88461 0.20747
59.88629 0.20740
59.89975 0.20692
59.91327 0.20648
59.92684 0.20608
59.94046 0.20571
59.95413 0.20538
59.96784 0.20510
59.98159 0.20485
59.98710 0.20476
60.00090 0.20459
60.01471 0.20446
60.02854 0.20436
60.04238 0.20431
60.05622 0.20430
60.07007 0.20432
60.08390 0.20439
60.09248 0.20445
60.10630 0.20458
60.12009 0.20475
60.13386 0.20496
60.14760 0.20521
60.16130 0.20550
60.17496 0.20583
60.18857 0.20620
60.19916 0.20651
60.21269 0.20693
60.22616 0.20739
60.23958 0.20788
60.25292 0.20841
60.26620 0.20898
60.27940 0.20959
60.29252 0.21023
60.30399 0.21082
60.31700 0.21150
60.32992 0.21221
60.34275 0.21295
60.35550 0.21374
60.36815 0.21455
60.38069 0.21540
60.39314 0.21628
60.40447 0.21712
60.41680 0.21801
60.42904 0.21894
60.44117 0.21990
60.45319 0.22089
60.46511 0.22191
60.47691 0.22296
60.48860 0.22404
60.49895 0.22504
60.51057 0.22610
60.52207 0.22720
60.53347 0.22832
60.54475 0.22947
60.55592 0.23066
60.56697 0.23187
60.57791 0.23311
60.58674 0.23414
60.59767 0.23533
60.60849 0.23655
60.61919 0.23780
60.62978 0.23907
60.64026 0.24037
60.65062 0.24170
60.66087 0.24305
60.66785 0.24400
60.67817 0.24527
60.68839 0.24657
60.69849 0.24790
60.70849 0.24925
60.71838 0.25062
60.72816 0.25202
60.73783 0.25345
60.74281 0.25419
60.75264 0.25551
60.76236 0.25684
60.77199 0.25821
60.78151 0.25959
60.79094 0.26100
60.80026 0.26243
60.80948 0.26389
60.81241 0.26436
60.82186 0.26567
60.83123 0.26700
60.84050 0.26836
60.84967 0.26974
60.85875 0.27114
60.86774 0.27257
60.87663 0.27402
60.87756 0.27417
60.88675 0.27544
60.89587 0.27673
60.90490 0.27804
60.91384 0.27938
60.92270 0.28074
60.93147 0.28212
60.93916 0.28336
60.94820 0.28455
60.95717 0.28576
60.96605 0.28700
60.97486 0.28825
60.98360 0.28953
60.99225 0.29083
60.99807 0.29172
61.00702 0.29280
61.01591 0.29389
61.02474 0.29501
61.03349 0.29615
61.04218 0.29732
61.05080 0.29850
61.05502 0.29910
61.06394 0.30002
61.07281 0.30097
61.08162 0.30194
61.09037 0.30294
61.09907 0.30396
61.10770 0.30500
61.11065 0.30536
61.11957 0.30612
61.12844 0.30689
61.13727 0.30770
61.14605 0.30852
61.15478 0.30937
61.16347 0.31024
61.16549 0.31045
61.17441 0.31102
61.18330 0.31161
61.19215 0.31222
61.20096 0.31286
61.20974 0.31352
61.21848 0.31421
61.21995 0.31433
61.22887 0.31469
61.23776 0.31509
61.24663 0.31551
61.25548 0.31595
61.26430 0.31642
61.27310 0.31691
61.27434 0.31698
61.28324 0.31715
61.29214 0.31735
61.30102 0.31757
61.30989 0.31782
61.31874 0.31809
61.32758 0.31839
61.32888 0.31844
61.33776 0.31842
61.34664 0.31842
61.35552 0.31846
61.36440 0.31851
61.37328 0.31859
61.38215 0.31870
61.38369 0.31872
61.39255 0.31852
61.40141 0.31835
61.41029 0.31820
61.41917 0.31807
61.42806 0.31797
61.43695 0.31789
61.43883 0.31788
61.44766 0.31751
61.45651 0.31716
61.46537 0.31684
61.47425 0.31654
61.48315 0.31627
61.49206 0.31602
61.49428 0.31597
61.50307 0.31543
61.51190 0.31492
61.52076 0.31444
61.52964 0.31398
61.53854 0.31354
61.54748 0.31313
61.54994 0.31302
61.55871 0.31233
61.56752 0.31166
61.57637 0.31102
61.58525 0.31041
61.59417 0.30981
61.60312 0.30925
61.60570 0.30909
61.61445 0.30825
61.62324 0.30743
61.63209 0.30664
61.64098 0.30587
61.64991 0.30512
61.65888 0.30440
61.66139 0.30421
61.67011 0.30322
61.67889 0.30225
61.68773 0.30131
61.69662 0.30039
61.70556 0.29949
61.71456 0.29862
61.71682 0.29841
61.72551 0.29727
61.73427 0.29616
61.74310 0.29506
61.75199 0.29399
61.76094 0.29295
61.76996 0.29192
61.77180 0.29172
61.78045 0.29043
61.78917 0.28917
61.79798 0.28792
61.80686 0.28670
61.81581 0.28550
61.82484 0.28433
61.82612 0.28416
61.83471 0.28272
61.84339 0.28131
61.85216 0.27991
61.86102 0.27854
61.86996 0.27719
61.87899 0.27586
61.87961 0.27577
61.88812 0.27418
61.89674 0.27261
61.90544 0.27106
61.91425 0.26953
61.92316 0.26803
61.93209 0.26656
61.94050 0.26482
61.94901 0.26311
61.95764 0.26141
61.96638 0.25973
61.97524 0.25807
61.98340 0.25658
61.99168 0.25470
62.00008 0.25284
62.00860 0.25100
62.01725 0.24918
62.02603 0.24738
62.03341 0.24589
62.04154 0.24389
62.04980 0.24189
62.05819 0.23992
62.06673 0.23796
62.07541 0.23601
62.08198 0.23458
62.08994 0.23244
62.09805 0.23033
62.10631 0.22823
62.11472 0.22614
62.12329 0.22407
62.12900 0.22272
62.13679 0.22048
62.14474 0.21826
62.15285 0.21604
62.16113 0.21385
62.16958 0.21166
62.17434 0.21046
62.18196 0.20812
62.18975 0.20580
62.19771 0.20349
62.20586 0.20119
62.21420 0.19890
62.21785 0.19792
62.22530 0.19550
62.23293 0.19310
62.24076 0.19070
62.24879 0.18831
62.25702 0.18594
62.25934 0.18528
62.26663 0.18279
62.27412 0.18031
62.28182 0.17784
62.28974 0.17539
62.29787 0.17294
62.29858 0.17273
62.30571 0.17018
62.31306 0.16764
62.32064 0.16510
62.32845 0.16258
62.33525 0.16045
62.34221 0.15785
62.34941 0.15526
62.35685 0.15267
62.36455 0.15009
62.36893 0.14867
62.37569 0.14602
62.38270 0.14338
62.38997 0.14075
62.39752 0.13812
62.39910 0.13759
62.40560 0.13490
62.41236 0.13222
62.41941 0.12955
62.42522 0.12743
62.43134 0.12470
62.43773 0.12199
62.44441 0.11928
62.44666 0.11839
62.45224 0.11564
62.45808 0.11289
62.46299 0.11069
62.46779 0.10791
62.47283 0.10513
62.47404 0.10449
62.47776 0.10168
62.48016 0.09995
62.48215 0.09713
62.48278 0.09626
62.48288 0.09727
62.48509 0.10009
62.48514 0.10017
62.48886 0.10297
62.49126 0.10486
62.49624 0.10764
62.50096 0.11042
62.50231 0.11124
62.50825 0.11399
62.51390 0.11674
62.51864 0.11916
62.52527 0.12187
62.53161 0.12459
62.53768 0.12731
62.54009 0.12843
62.54720 0.13111
62.55402 0.13379
62.56057 0.13647
62.56620 0.13887
62.57362 0.14150
62.58078 0.14414
62.58767 0.14678
62.59433 0.14944
62.59637 0.15027
62.60402 0.15285
62.61141 0.15544
62.61856 0.15804
62.62548 0.16064
62.63005 0.16242
62.63786 0.16494
62.64542 0.16747
62.65277 0.17002
62.65989 0.17257
62.66672 0.17509
62.67465 0.17755
62.68236 0.18002
62.68986 0.18250
62.69717 0.18499
62.70428 0.18749
62.70595 0.18809
62.71400 0.19047
62.72185 0.19287
62.72950 0.19528
62.73697 0.19769
62.74426 0.20012
62.74745 0.20121
62.75561 0.20350
62.76359 0.20581
62.77139 0.20814
62.77902 0.21047
62.78648 0.21282
62.79096 0.21426
62.79923 0.21645
62.80734 0.21866
62.81529 0.22089
62.82307 0.22313
62.83071 0.22538
62.83630 0.22707
62.84468 0.22915
62.85292 0.23125
62.86100 0.23337
62.86894 0.23550
62.87674 0.23764
62.88332 0.23949
62.89181 0.24145
62.90015 0.24343
62.90837 0.24542
62.91645 0.24743
62.92440 0.24946
62.93189 0.25141
62.94046 0.25323
62.94891 0.25507
62.95724 0.25693
62.96544 0.25881
62.97353 0.26070
62.98150 0.26262
62.98190 0.26271
62.99054 0.26439
62.99906 0.26609
63.00748 0.26781
63.01579 0.26954
63.02400 0.27130
63.03209 0.27307
63.03321 0.27332
63.04189 0.27485
63.05047 0.27640
63.05896 0.27797
63.06735 0.27956
63.07565 0.28117
63.08385 0.28279
63.08569 0.28316
63.09439 0.28454
63.10301 0.28594
63.11154 0.28736
63.11999 0.28880
63.12835 0.29026
63.13663 0.29174
63.13918 0.29221
63.14788 0.29343
63.15652 0.29468
63.16507 0.29595
63.17356 0.29724
63.18197 0.29855
63.19031 0.29989
63.19351 0.30041
63.20220 0.30148
63.21083 0.30258
63.21940 0.30370
63.22790 0.30484
63.23634 0.30601
63.24472 0.30719
63.24848 0.30773
63.25715 0.30866
63.26577 0.30961
63.27434 0.31058
63.28285 0.31158
63.29131 0.31259
63.29971 0.31363
63.30391 0.31416
63.31256 0.31494
63.32116 0.31574
63.32972 0.31656
63.33823 0.31741
63.34670 0.31828
63.35512 0.31917
63.35960 0.31966
63.36822 0.32029
63.37680 0.32094
63.38535 0.32161
63.39387 0.32231
63.40234 0.32303
63.41078 0.32378
63.41536 0.32419
63.42395 0.32466
63.43252 0.32516
63.44107 0.32568
63.44958 0.32623
63.45807 0.32679
63.46652 0.32739
63.47102 0.32771
63.47960 0.32802
63.48815 0.32836
63.49669 0.32872
63.50521 0.32910
63.51371 0.32951
63.52219 0.32994
63.52647 0.33017
63.53502 0.33031
63.54357 0.33048
63.55210 0.33067
63.56063 0.33088
63.56914 0.33112
63.57765 0.33139
63.58161 0.33152
63.59014 0.33148
63.59867 0.33147
63.60720 0.33148
63.61574 0.33151
63.62427 0.33157
63.63279 0.33165
63.63642 0.33169
63.64492 0.33147
63.65344 0.33126
63.66196 0.33108
63.67049 0.33093
63.67903 0.33080
63.68758 0.33069
63.69096 0.33065
63.69943 0.33023
63.70791 0.32983
63.71641 0.32945
63.72494 0.32910
63.73348 0.32877
63.74203 0.32846
63.74535 0.32835
63.75376 0.32773
63.76221 0.32713
63.77068 0.32655
63.77918 0.32600
63.78771 0.32547
63.79627 0.32497
63.79981 0.32477
63.80816 0.32395
63.81656 0.32316
63.82499 0.32240
63.83346 0.32165
63.84197 0.32093
63.85052 0.32023
63.85465 0.31990
63.86294 0.31891
63.87129 0.31794
63.87969 0.31700
63.88813 0.31608
63.89663 0.31518
63.90517 0.31430
63.91028 0.31379
63.91854 0.31264
63.92686 0.31152
63.93524 0.31042
63.94368 0.30935
63.95218 0.30829
63.96073 0.30726
63.96723 0.30649
63.97550 0.30523
63.98384 0.30398
63.99224 0.30276
64.00072 0.30156
64.00926 0.30038
64.01786 0.29922
64.02614 0.29813
64.03449 0.29678
64.04291 0.29544
64.05140 0.29413
64.05998 0.29284
64.06863 0.29157
64.07735 0.29032
64.08615 0.28909
64.08775 0.28888
64.09626 0.28747
64.10485 0.28608
64.11353 0.28471
64.12229 0.28337
64.13114 0.28205
64.14006 0.28075
64.14907 0.27947
64.15289 0.27894
64.16168 0.27751
64.17055 0.27611
64.17951 0.27473
64.18857 0.27337
64.19771 0.27204
64.20694 0.27072
64.21627 0.26944
64.22249 0.26859
64.23166 0.26719
64.24093 0.26582
64.25030 0.26446
64.25976 0.26313
64.26932 0.26183
64.27897 0.26054
64.28872 0.25929
64.29745 0.25819
64.30713 0.25685
64.31691 0.25554
64.32680 0.25426
64.33678 0.25300
64.34686 0.25176
64.35704 0.25055
64.36732 0.24937
64.37769 0.24821
64.37856 0.24812
64.38885 0.24689
64.39925 0.24569
64.40975 0.24451
64.42035 0.24336
64.43104 0.24224
64.44184 0.24115
64.45273 0.24009
64.46372 0.23905
64.46635 0.23881
64.47732 0.23773
64.48840 0.23669
64.49957 0.23567
64.51084 0.23468
64.52221 0.23372
64.53366 0.23279
64.54521 0.23190
64.55684 0.23103
64.56083 0.23074
64.57251 0.22986
64.58427 0.22902
64.59612 0.22820
64.60805 0.22742
64.62006 0.22667
64.63215 0.22595
64.64431 0.22526
64.65655 0.22461
64.66131 0.22437
64.67361 0.22373
64.68597 0.22313
64.69841 0.22256
64.71090 0.22202
64.72345 0.22152
64.73606 0.22105
64.74872 0.22062
64.76143 0.22023
64.76614 0.22009
64.77890 0.21973
64.79169 0.21941
64.80453 0.21912
64.81739 0.21887
64.83028 0.21866
64.84320 0.21848
64.85613 0.21834
64.86908 0.21823
64.87282 0.21821
64.88578 0.21816
64.89875 0.21814
64.91171 0.21816
64.92467 0.21822
64.93763 0.21832
64.95056 0.21845
64.96348 0.21862
64.97638 0.21882
64.97820 0.21885
64.99105 0.21912
65.00388 0.21943
65.01666 0.21978
65.02940 0.22016
65.04210 0.22057
65.05475 0.22102
65.06734 0.22151
65.07900 0.22199
65.09144 0.22259
65.10381 0.22322
65.11611 0.22388
65.12833 0.22458
65.14048 0.22531
65.15255 0.22608
65.16453 0.22687
65.17240 0.22742
65.18415 0.22833
65.19581 0.22926
65.20738 0.23023
65.21884 0.23124
65.23021 0.23227
65.24147 0.23333
65.25263 0.23442
65.25634 0.23479
65.26722 0.23599
65.27799 0.23722
65.28865 0.23847
65.29920 0.23975
65.30963 0.24106
65.31995 0.24239
65.32976 0.24370
65.33966 0.24516
65.34945 0.24665
65.35911 0.24816
65.36866 0.24969
65.37809 0.25125
65.38740 0.25283
65.39242 0.25369
65.40131 0.25539
65.41007 0.25711
65.41872 0.25885
65.42725 0.26061
65.43567 0.26239
65.44397 0.26418
65.44474 0.26435
65.45261 0.26626
65.46037 0.26818
65.46801 0.27012
65.47555 0.27208
65.48298 0.27405
65.48749 0.27526
65.49439 0.27735
65.50118 0.27946
65.50788 0.28157
65.51447 0.28370
65.52096 0.28584
65.52169 0.28608
65.52766 0.28833
65.53355 0.29059
65.53934 0.29285
65.54504 0.29513
65.54840 0.29649
65.55350 0.29888
65.55853 0.30127
65.56348 0.30367
65.56835 0.30608
65.56868 0.30624
65.57297 0.30875
65.57718 0.31125
65.58133 0.31377
65.58353 0.31512
65.58704 0.31772
65.59050 0.32032
65.59390 0.32293
65.59390 0.32294
65.59667 0.32562
65.59939 0.32830
65.60065 0.32956
65.60270 0.33231
65.60458 0.33488
65.60591 0.33767
65.60644 0.33880
65.60695 0.34128
65.60679 0.34226
65.60663 0.34174
65.60713 0.33973
65.60862 0.33695
65.60900 0.33626
65.61118 0.33352
65.61293 0.33137
65.61579 0.32870
65.61870 0.32604
65.61968 0.32515
65.62322 0.32257
65.62682 0.31999
65.63004 0.31772
65.63429 0.31523
65.63860 0.31274
65.64298 0.31026
65.64490 0.30919
65.64987 0.30681
65.65492 0.30444
65.66005 0.30208
65.66518 0.29976
65.67092 0.29750
65.67674 0.29526
65.68264 0.29303
65.68864 0.29081
65.69189 0.28962
65.69843 0.28752
65.70506 0.28542
65.71179 0.28334
65.71862 0.28127
65.72555 0.27921
65.72609 0.27906
65.73347 0.27711
65.74096 0.27518
65.74856 0.27327
65.75626 0.27137
65.76407 0.26949
65.76884 0.26836
65.77712 0.26660
65.78550 0.26486
65.79400 0.26313
65.80261 0.26143
65.81133 0.25975
65.82016 0.25808
65.82115 0.25790
65.83035 0.25634
65.83965 0.25481
65.84907 0.25330
65.85860 0.25182
65.86824 0.25035
65.87799 0.24891
65.88382 0.24807
65.89393 0.24675
65.90414 0.24546
65.91447 0.24419
65.92490 0.24294
65.93544 0.24173
65.94608 0.24054
65.95683 0.23938
65.95724 0.23933
65.96821 0.23827
65.97929 0.23724
65.99046 0.23623
66.00172 0.23526
66.01307 0.23431
66.02452 0.23340
66.03605 0.23251
66.04118 0.23213
66.05291 0.23135
66.06472 0.23060
66.07660 0.22989
66.08856 0.22920
66.10059 0.22855
66.11268 0.22793
66.12484 0.22735
66.13457 0.22691
66.14687 0.22643
66.15922 0.22598
66.17161 0.22557
66.18405 0.22519
66.19652 0.22485
66.20904 0.22454
66.22158 0.22427
66.23416 0.22403
66.23538 0.22401
66.24799 0.22383
66.26061 0.22370
66.27325 0.22359
66.28590 0.22353
66.29856 0.22349
66.31121 0.22350
66.32386 0.22354
66.33651 0.22362
66.34076 0.22365
66.35339 0.22378
66.36600 0.22395
66.37859 0.22415
66.39116 0.22439
66.40370 0.22466
66.41621 0.22497
66.42868 0.22531
66.44111 0.22569
66.44744 0.22589
66.45981 0.22631
66.47214 0.22676
66.48441 0.22724
66.49663 0.22776
66.50880 0.22832
66.52090 0.22890
66.53294 0.22952
66.54491 0.23018
66.55227 0.23060
66.56417 0.23127
66.57599 0.23197
66.58775 0.23271
66.59943 0.23348
66.61102 0.23428
66.62254 0.23511
66.63398 0.23598
66.64533 0.23687
66.65275 0.23747
66.66403 0.23836
66.67523 0.23928
66.68635 0.24023
66.69737 0.24121
66.70831 0.24222
66.71915 0.24325
66.72990 0.24432
66.74055 0.24541
66.74723 0.24611
66.75786 0.24717
66.76840 0.24826
66.77884 0.24938
66.78919 0.25052
66.79944 0.25169
66.80960 0.25289
66.81966 0.25411
66.82963 0.25536
66.83502 0.25605
66.84502 0.25724
66.85493 0.25846
66.86474 0.25970
66.87446 0.26096
66.88408 0.26225
66.89361 0.26356
66.90304 0.26490
66.91238 0.26626
66.91613 0.26681
66.92558 0.26809
66.93493 0.26938
66.94420 0.27070
66.95337 0.27204
66.96246 0.27341
66.97145 0.27479
66.98036 0.27620
66.98917 0.27763
66.99109 0.27795
67.00008 0.27926
67.00899 0.28059
67.01782 0.28195
67.02656 0.28332
67.03522 0.28472
67.04379 0.28614
67.05227 0.28758
67.06067 0.28904
67.06068 0.28904
67.06934 0.29035
67.07792 0.29168
67.08642 0.29303
67.09484 0.29440
67.10318 0.29580
67.11144 0.29721
67.11963 0.29864
67.12584 0.29975
67.13426 0.30102
67.14261 0.30231
67.15088 0.30361
67.15909 0.30494
67.16722 0.30629
67.17529 0.30766
67.18328 0.30905
67.18744 0.30979
67.19572 0.31097
67.20393 0.31218
67.21207 0.31340
67.22016 0.31465
67.22818 0.31592
67.23613 0.31721
67.24402 0.31851
67.24635 0.31891
67.25455 0.31998
67.26269 0.32107
67.27078 0.32218
67.27881 0.32331
67.28678 0.32446
67.29470 0.32564
67.30256 0.32683
67.30330 0.32694
67.31147 0.32787
67.31959 0.32881
67.32766 0.32977
67.33569 0.33076
67.34367 0.33177
67.35159 0.33280
67.35893 0.33377
67.36709 0.33452
67.37522 0.33529
67.38330 0.33609
67.39135 0.33690
67.39936 0.33774
67.40733 0.33860
67.41377 0.33931
67.42193 0.33987
67.43007 0.34046
67.43817 0.34106
67.44625 0.34169
67.45430 0.34234
67.46232 0.34302
67.46823 0.34353
67.47639 0.34389
67.48453 0.34428
67.49265 0.34469
67.50076 0.34512
67.50884 0.34558
67.51690 0.34606
67.52262 0.34641
67.53076 0.34658
67.53890 0.34677
67.54703 0.34698
67.55516 0.34722
67.56326 0.34748
67.57136 0.34776
67.57715 0.34798
67.58528 0.34795
67.59341 0.34795
67.60154 0.34798
67.60967 0.34802
67.61779 0.34809
67.62591 0.34818
67.63197 0.34827
67.64008 0.34806
67.64819 0.34788
67.65631 0.34772
67.66443 0.34759
67.67256 0.34747
67.68070 0.34738
67.68711 0.34733
67.69519 0.34695
67.70328 0.34660
67.71139 0.34627
67.71951 0.34596
67.72765 0.34567
67.73580 0.34541
67.74256 0.34521
67.75060 0.34467
67.75868 0.34416
67.76678 0.34367
67.77490 0.34319
67.78304 0.34275
67.79120 0.34232
67.79822 0.34197
67.80625 0.34128
67.81431 0.34061
67.82240 0.33996
67.83052 0.33933
67.83867 0.33873
67.84684 0.33815
67.85398 0.33766
67.86198 0.33681
67.87003 0.33599
67.87811 0.33519
67.88623 0.33441
67.89439 0.33365
67.90259 0.33292
67.90967 0.33230
67.91765 0.33131
67.92568 0.33034
67.93375 0.32939
67.94187 0.32846
67.95004 0.32755
67.95825 0.32667
67.96509 0.32595
67.97305 0.32481
67.98106 0.32369
67.98912 0.32259
67.99724 0.32151
68.00541 0.32045
68.01364 0.31942
68.02007 0.31863
68.02799 0.31733
68.03597 0.31606
68.04401 0.31481
68.05211 0.31358
68.06028 0.31237
68.06852 0.31118
68.07440 0.31035
68.08226 0.30891
68.09020 0.30749
68.09820 0.30609
68.10628 0.30470
68.11444 0.30334
68.12266 0.30200
68.12789 0.30116
68.13568 0.29957
68.14354 0.29800
68.15150 0.29644
68.15953 0.29491
68.16765 0.29339
68.17585 0.29190
68.18037 0.29109
68.18806 0.28935
68.19584 0.28763
68.20371 0.28593
68.21168 0.28424
68.21975 0.28257
68.22790 0.28093
68.23168 0.28018
68.23925 0.27830
68.24692 0.27643
68.25470 0.27459
68.26258 0.27276
68.27057 0.27095
68.27866 0.26915
68.28168 0.26849
68.28912 0.26648
68.29666 0.26448
68.30432 0.26250
68.31210 0.26054
68.31999 0.25859
68.32801 0.25665
68.33026 0.25612
68.33754 0.25398
68.34495 0.25186
68.35248 0.24976
68.36014 0.24767
68.36792 0.24559
68.37584 0.24353
68.37728 0.24316
68.38440 0.24092
68.39166 0.23869
68.39906 0.23647
68.40659 0.23427
68.41426 0.23208
68.42209 0.22990
68.42262 0.22976
68.42959 0.22742
68.43670 0.22509
68.44395 0.22278
68.45136 0.22047
68.45893 0.21818
68.46613 0.21606
68.47294 0.21364
68.47991 0.21123
68.48704 0.20883
68.49433 0.20644
68.50180 0.20406
68.50763 0.20225
68.51429 0.19976
68.52112 0.19728
68.52813 0.19481
68.53532 0.19234
68.54269 0.18989
68.54687 0.18853
68.55339 0.18598
68.56009 0.18344
68.56698 0.18090
68.57406 0.17838
68.58135 0.17586
68.58353 0.17512
68.58990 0.17252
68.59646 0.16993
68.60322 0.16734
68.61020 0.16476
68.61720 0.16225
68.62338 0.15960
68.62977 0.15696
68.63638 0.15433
68.64322 0.15170
68.64738 0.15015
68.65332 0.14746
68.65948 0.14478
68.66587 0.14211
68.67251 0.13944
68.67349 0.13905
68.67909 0.13633
68.68491 0.13361
68.69098 0.13090
68.69495 0.12919
68.70004 0.12643
68.70536 0.12368
68.71092 0.12094
68.71127 0.12077
68.71565 0.11799
68.72024 0.11521
68.72231 0.11400
68.72571 0.11120
68.72844 0.10904
68.73025 0.10622
68.73106 0.10501
68.73117 0.10611
68.73319 0.10893
68.73341 0.10926
68.73684 0.11206
68.73954 0.11437
68.74412 0.11715
68.74848 0.11993
68.75058 0.12133
68.75604 0.12407
68.76126 0.12682
68.76625 0.12958
68.76691 0.12995
68.77300 0.13266
68.77885 0.13538
68.78447 0.13810
68.78837 0.14006
68.79490 0.14273
68.80119 0.14541
68.80725 0.14810
68.81310 0.15079
68.81448 0.15143
68.82130 0.15406
68.82790 0.15670
68.83428 0.15934
68.84044 0.16199
68.84466 0.16386
68.85168 0.16644
68.85849 0.16902
68.86510 0.17162
68.87150 0.17422
68.87772 0.17683
68.87833 0.17709
68.88550 0.17961
68.89247 0.18214
68.89925 0.18468
68.90584 0.18723
68.91226 0.18979
68.91499 0.19090
68.92228 0.19336
68.92938 0.19582
68.93631 0.19830
68.94307 0.20079
68.94966 0.20328
68.95423 0.20506
68.96163 0.20744
68.96885 0.20983
68.97591 0.21224
68.98282 0.21465
68.98957 0.21707
68.99573 0.21934
69.00323 0.22164
69.01057 0.22395
69.01777 0.22626
69.02481 0.22860
69.03172 0.23094
69.03849 0.23329
69.03924 0.23355
69.04684 0.23575
69.05430 0.23796
69.06163 0.24018
69.06882 0.24241
69.07587 0.24466
69.08280 0.24692
69.08458 0.24751
69.09228 0.24959
69.09986 0.25168
69.10730 0.25380
69.11463 0.25592
69.12183 0.25806
69.12892 0.26021
69.13160 0.26104
69.13939 0.26299
69.14707 0.26497
69.15463 0.26695
69.16209 0.26896
69.16943 0.27097
69.17666 0.27301
69.18017 0.27401
69.18805 0.27583
69.19582 0.27767
69.20348 0.27952
69.21105 0.28139
69.21851 0.28328
69.22588 0.28518
69.23018 0.28631
69.23811 0.28798
69.24595 0.28968
69.25370 0.29139
69.26136 0.29312
69.26893 0.29486
69.27641 0.29663
69.28149 0.29785
69.28946 0.29937
69.29735 0.30092
69.30516 0.30248
69.31289 0.30407
69.32054 0.30567
69.32811 0.30728
69.33397 0.30856
69.34196 0.30993
69.34988 0.31133
69.35773 0.31274
69.36551 0.31418
69.37322 0.31563
69.38086 0.31710
69.38746 0.31840
69.39545 0.31962
69.40338 0.32086
69.41126 0.32212
69.41907 0.32341
69.42681 0.32471
69.43450 0.32603
69.44178 0.32731
69.44977 0.32838
69.45770 0.32948
69.46558 0.33059
69.47340 0.33172
69.48117 0.33288
69.48889 0.33405
69.49655 0.33524
69.49676 0.33528
69.50472 0.33620
69.51264 0.33714
69.52052 0.33811
69.52835 0.33909
69.53613 0.34010
69.54387 0.34113
69.55156 0.34217
69.55219 0.34226
69.56013 0.34303
69.56803 0.34383
69.57590 0.34465
69.58373 0.34548
69.59152 0.34634
69.59927 0.34722
69.60698 0.34812
69.60788 0.34823
69.61580 0.34885
69.62368 0.34950
69.63154 0.35017
69.63937 0.35085
69.64716 0.35156
69.65493 0.35229
69.66266 0.35305
69.66364 0.35314
69.67153 0.35361
69.67940 0.35410
69.68725 0.35462
69.69508 0.35515
69.70288 0.35571
69.71066 0.35629
69.71841 0.35689
69.71930 0.35696
69.72718 0.35727
69.73504 0.35760
69.74288 0.35795
69.75071 0.35832
69.75852 0.35872
69.76631 0.35914
69.77409 0.35958
69.77474 0.35962
69.78260 0.35976
69.79045 0.35992
69.79829 0.36010
69.80612 0.36030
69.81394 0.36053
69.82175 0.36078
69.82955 0.36105
69.82989 0.36106
69.83772 0.36102
69.84555 0.36100
69.85339 0.36100
69.86122 0.36103
69.86906 0.36107
69.87689 0.36114
69.88470 0.36123
69.89251 0.36100
69.90032 0.36079
69.90815 0.36061
69.91598 0.36044
69.92382 0.36030
69.93166 0.36018
69.93924 0.36008
69.94701 0.35965
69.95480 0.35925
69.96260 0.35886
69.97042 0.35850
69.97826 0.35816
69.98611 0.35784
69.99363 0.35755
70.00135 0.35693
70.00910 0.35632
70.01687 0.35574
70.02467 0.35518
70.03250 0.35464
70.04034 0.35412
70.04809 0.35363
70.05576 0.35281
70.06346 0.35202
70.07119 0.35124
70.07896 0.35049
70.08676 0.34975
70.09460 0.34904
70.10247 0.34835
70.10293 0.34831
70.11054 0.34732
70.11820 0.34635
70.12590 0.34540
70.13364 0.34446
70.14142 0.34355
70.14925 0.34266
70.15711 0.34179
70.15856 0.34164
70.16614 0.34049
70.17377 0.33936
70.18146 0.33826
70.18919 0.33717
70.19697 0.33611
70.20480 0.33506
70.21268 0.33404
70.21551 0.33367
70.22310 0.33241
70.23075 0.33116
70.23845 0.32993
70.24622 0.32872
70.25404 0.32753
70.26191 0.32636
70.26984 0.32521
70.27441 0.32456
70.28207 0.32320
70.28980 0.32186
70.29759 0.32054
70.30544 0.31924
70.31336 0.31796
70.32134 0.31670
70.32938 0.31546
70.33602 0.31446
70.34384 0.31305
70.35172 0.31166
70.35967 0.31028
70.36770 0.30893
70.37579 0.30760
70.38395 0.30629
70.39219 0.30500
70.40049 0.30372
70.40117 0.30362
70.40924 0.30220
70.41738 0.30079
70.42559 0.29940
70.43388 0.29804
70.44225 0.29669
70.45069 0.29537
70.45921 0.29407
70.46781 0.29278
70.47077 0.29235
70.47920 0.29095
70.48770 0.28957
70.49628 0.28821
70.50495 0.28687
70.51369 0.28555
70.52252 0.28425
70.53143 0.28298
70.54041 0.28173
70.54573 0.28101
70.55462 0.27967
70.56359 0.27836
70.57265 0.27706
70.58179 0.27579
70.59102 0.27455
70.60033 0.27332
70.60972 0.27212
70.61920 0.27095
70.62684 0.27003
70.63629 0.26880
70.64583 0.26759
70.65546 0.26641
70.66517 0.26525
70.67496 0.26412
70.68484 0.26302
70.69480 0.26194
70.70484 0.26088
70.71462 0.25989
70.72471 0.25881
70.73487 0.25776
70.74512 0.25673
70.75545 0.25573
70.76585 0.25476
70.77634 0.25382
70.78690 0.25290
70.79754 0.25202
70.80826 0.25116
70.80911 0.25109
70.81983 0.25021
70.83063 0.24936
70.84150 0.24853
70.85244 0.24774
70.86345 0.24698
70.87452 0.24624
70.88566 0.24554
70.89687 0.24487
70.90813 0.24422
70.90959 0.24414
70.92088 0.24350
70.93224 0.24289
70.94365 0.24231
70.95512 0.24177
70.96664 0.24125
70.97820 0.24077
70.98981 0.24032
71.00146 0.23990
71.01315 0.23952
71.01442 0.23948
71.02614 0.23911
71.03790 0.23879
71.04968 0.23849
71.06150 0.23823
71.07334 0.23800
71.08520 0.23780
71.09708 0.23764
71.10897 0.23751
71.12088 0.23741
71.12110 0.23741
71.13301 0.23736
71.14493 0.23734
71.15685 0.23735
71.16876 0.23740
71.18067 0.23748
71.19257 0.23759
71.20445 0.23774
71.21632 0.23792
71.22648 0.23810
71.23829 0.23837
71.25008 0.23867
71.26184 0.23901
71.27357 0.23937
71.28526 0.23978
71.29690 0.24021
71.30850 0.24067
71.32006 0.24117
71.32728 0.24150
71.33872 0.24209
71.35010 0.24272
71.36142 0.24338
71.37268 0.24406
71.38387 0.24478
71.39500 0.24553
71.40606 0.24631
71.41704 0.24712
71.42068 0.24739
71.43149 0.24830
71.44222 0.24923
71.45287 0.25019
71.46344 0.25118
71.47392 0.25220
71.48432 0.25325
71.49463 0.25432
71.50462 0.25540
71.51463 0.25659
71.52455 0.25782
71.53437 0.25906
71.54410 0.26034
71.55373 0.26163
71.56327 0.26295
71.57271 0.26430
71.57804 0.26507
71.58715 0.26653
71.59616 0.26802
71.60507 0.26952
71.61388 0.27105
71.62260 0.27259
71.63121 0.27416
71.63972 0.27575
71.64070 0.27593
71.64888 0.27763
71.65695 0.27934
71.66493 0.28108
71.67281 0.28283
71.68059 0.28460
71.68827 0.28638
71.69302 0.28750
71.70026 0.28941
71.70741 0.29133
71.71447 0.29326
71.72144 0.29521
71.72831 0.29718
71.73509 0.29916
71.73577 0.29936
71.74212 0.30144
71.74839 0.30354
71.75456 0.30565
71.76066 0.30778
71.76667 0.30991
71.76997 0.31110
71.77547 0.31335
71.78090 0.31560
71.78625 0.31787
71.79152 0.32014
71.79668 0.32241
71.80138 0.32479
71.80602 0.32718
71.81059 0.32958
71.81509 0.33198
71.81696 0.33299
71.82091 0.33549
71.82480 0.33800
71.82864 0.34051
71.83181 0.34262
71.83505 0.34522
71.83824 0.34782
71.84138 0.35043
71.84218 0.35111
71.84474 0.35379
71.84725 0.35647
71.84893 0.35829
71.85082 0.36103
71.85268 0.36378
71.85286 0.36405
71.85409 0.36684
71.85472 0.36829
71.85523 0.37096
71.85507 0.37201
71.85490 0.37143
71.85541 0.36922
71.85678 0.36644
71.85728 0.36543
71.85928 0.36269
71.86121 0.36010
71.86383 0.35743
71.86650 0.35476
71.86796 0.35332
71.87121 0.35074
71.87451 0.34815
71.87786 0.34557
71.87832 0.34522
71.88222 0.34273
71.88617 0.34024
71.89018 0.33776
71.89318 0.33594
71.89775 0.33356
71.90238 0.33119
71.90707 0.32882
71.91184 0.32646
71.91346 0.32567
71.91873 0.32342
71.92407 0.32117
71.92949 0.31894
71.93498 0.31671
71.94017 0.31465
71.94618 0.31254
71.95227 0.31044
71.95844 0.30835
71.96470 0.30628
71.97104 0.30422
71.97437 0.30315
71.98116 0.30120
71.98804 0.29927
71.99501 0.29735
72.00206 0.29545
72.00921 0.29356
72.01645 0.29169
72.01712 0.29151
72.02473 0.28975
72.03243 0.28801
72.04023 0.28628
72.04812 0.28457
72.05611 0.28287
72.06419 0.28120
72.06943 0.28013
72.07789 0.27858
72.08644 0.27704
72.09508 0.27553
72.10382 0.27403
72.11266 0.27256
72.12159 0.27111
72.13061 0.26968
72.13210 0.26945
72.14140 0.26812
72.15079 0.26682
72.16027 0.26555
72.16985 0.26430
72.17951 0.26307
72.18926 0.26187
72.19911 0.26069
72.20552 0.25994
72.21562 0.25887
72.22580 0.25784
72.23606 0.25682
72.24641 0.25584
72.25683 0.25488
72.26733 0.25395
72.27791 0.25305
72.28856 0.25218
72.28946 0.25211
72.30025 0.25132
72.31112 0.25057
72.32204 0.24984
72.33303 0.24915
72.34408 0.24849
72.35519 0.24785
72.36635 0.24725
72.37757 0.24668
72.38285 0.24642
72.39417 0.24593
72.40554 0.24548
72.41694 0.24506
72.42838 0.24467
72.43986 0.24431
72.45136 0.24399
72.46290 0.24370
72.47446 0.24344
72.48366 0.24325
72.49527 0.24308
72.50689 0.24293
72.51853 0.24282
72.53018 0.24275
72.54183 0.24270
72.55348 0.24269
72.56514 0.24271
72.57679 0.24276
72.58843 0.24285
72.58904 0.24286
72.60067 0.24298
72.61229 0.24314
72.62389 0.24334
72.63547 0.24356
72.64703 0.24382
72.65856 0.24411
72.67006 0.24444
72.68153 0.24479
72.69297 0.24518
72.69572 0.24528
72.70711 0.24569
72.71847 0.24614
72.72979 0.24661
72.74106 0.24712
72.75228 0.24766
72.76345 0.24823
72.77457 0.24883
72.78564 0.24947
72.79665 0.25013
72.80055 0.25037
72.81151 0.25104
72.82242 0.25174
72.83326 0.25247
72.84403 0.25323
72.85474 0.25402
72.86538 0.25483
72.87596 0.25568
72.88646 0.25655
72.89689 0.25746
72.90102 0.25782
72.91142 0.25871
72.92175 0.25962
72.93201 0.26057
72.94219 0.26153
72.95229 0.26253
72.96231 0.26355
72.97226 0.26460
72.98213 0.26568
72.99192 0.26678
72.99551 0.26719
73.00531 0.26825
73.01503 0.26933
73.02467 0.27044
73.03423 0.27158
73.04370 0.27274
73.05310 0.27392
73.06242 0.27513
73.07165 0.27636
73.08080 0.27762
73.08330 0.27796
73.09251 0.27915
73.10165 0.28036
73.11071 0.28160
73.11969 0.28285
73.12859 0.28413
73.13741 0.28543
73.14615 0.28676
73.15480 0.28810
73.16338 0.28947
73.16441 0.28963
73.17312 0.29090
73.18175 0.29219
73.19030 0.29351
73.19878 0.29484
73.20718 0.29619
73.21551 0.29757
73.22376 0.29897
73.23193 0.30038
73.23936 0.30170
73.24766 0.30301
73.25588 0.30434
73.26403 0.30569
73.27211 0.30706
73.28011 0.30845
73.28804 0.30986
73.29590 0.31128
73.30369 0.31273
73.30896 0.31373
73.31694 0.31503
73.32486 0.31636
73.33271 0.31771
73.34049 0.31907
73.34820 0.32046
73.35585 0.32186
73.36343 0.32328
73.37094 0.32472
73.37411 0.32534
73.38188 0.32660
73.38958 0.32788
73.39722 0.32918
73.40480 0.33051
73.41233 0.33185
73.41979 0.33320
73.42719 0.33458
73.43452 0.33598
73.43572 0.33621
73.44335 0.33739
73.45092 0.33859
73.45845 0.33981
73.46591 0.34105
73.47333 0.34231
73.48068 0.34359
73.48799 0.34489
73.49462 0.34609
73.50218 0.34715
73.50969 0.34824
73.51716 0.34935
73.52458 0.35047
73.53194 0.35161
73.53927 0.35278
73.54654 0.35396
73.55158 0.35479
73.55911 0.35571
73.56660 0.35665
73.57405 0.35761
73.58146 0.35859
73.58883 0.35958
73.59616 0.36060
73.60345 0.36164
73.60721 0.36218
73.60788 0.36225
73.61551 0.36164
73.62317 0.36106
73.63086 0.36050
73.63856 0.35995
73.64629 0.35943
73.65404 0.35894
73.66181 0.35846
73.66961 0.35800
73.67742 0.35757
73.68525 0.35716
73.69310 0.35677
73.70096 0.35640
73.70884 0.35605
73.71674 0.35573
73.72465 0.35543
73.73257 0.35515
73.74050 0.35489
73.74845 0.35466
73.75640 0.35445
73.76437 0.35426
73.77234 0.35409
73.78032 0.35395
73.78830 0.35382
73.79629 0.35372
73.80429 0.35365
73.81228 0.35359
73.82028 0.35356
73.82828 0.35355
73.83628 0.35357
73.84428 0.35360
73.85228 0.35366
73.86027 0.35374
73.86826 0.35385
73.87624 0.35398
73.88422 0.35412
73.89219 0.35430
73.90015 0.35449
73.90811 0.35471
73.91605 0.35495
73.92398 0.35521
73.93190 0.35549
73.93981 0.35580
73.94770 0.35613
73.95558 0.35648
73.96344 0.35685
73.97128 0.35724
73.97911 0.35766
73.98692 0.35810
73.99471 0.35856
74.00247 0.35904
74.01022 0.35954
74.01794 0.36007
74.02565 0.36061
74.03332 0.36118
74.04098 0.36177
74.04860 0.36238
74.05621 0.36301
74.06378 0.36366
74.07133 0.36434
74.07885 0.36503
74.08634 0.36574
74.09380 0.36648
74.09595 0.36669
74.10225 0.36623
74.10963 0.36538
74.11704 0.36455
74.12449 0.36374
74.13196 0.36296
74.13947 0.36219
74.14701 0.36144
74.15458 0.36072
74.15794 0.36040
74.16530 0.35941
74.17270 0.35843
74.18013 0.35747
74.18761 0.35654
74.19512 0.35562
74.20267 0.35472
74.21026 0.35385
74.21337 0.35349
74.22070 0.35235
74.22808 0.35122
74.23550 0.35012
74.24297 0.34903
74.25049 0.34796
74.25805 0.34692
74.26566 0.34589
74.26835 0.34553
74.27565 0.34424
74.28299 0.34296
74.29039 0.34170
74.29785 0.34047
74.30536 0.33925
74.31292 0.33805
74.32054 0.33687
74.32268 0.33654
74.32992 0.33510
74.33723 0.33367
74.34460 0.33226
74.35203 0.33087
74.35952 0.32950
74.36707 0.32815
74.37469 0.32681
74.37617 0.32656
74.38334 0.32496
74.39059 0.32339
74.39790 0.32183
74.40529 0.32029
74.41275 0.31876
74.42027 0.31726
74.42787 0.31577
74.42865 0.31562
74.43573 0.31388
74.44290 0.31215
74.45014 0.31045
74.45746 0.30875
74.46486 0.30708
74.47235 0.30542
74.47991 0.30378
74.47996 0.30377
74.48693 0.30189
74.49400 0.30003
74.50115 0.29817
74.50839 0.29634
74.51571 0.29452
74.52314 0.29272
74.52997 0.29109
74.53681 0.28908
74.54376 0.28708
74.55080 0.28509
74.55794 0.28312
74.56518 0.28116
74.57252 0.27922
74.57854 0.27766
74.58524 0.27552
74.59206 0.27340
74.59898 0.27129
74.60601 0.26920
74.61314 0.26711
74.62039 0.26505
74.62556 0.26360
74.63212 0.26136
74.63880 0.25912
74.64559 0.25690
74.65250 0.25470
74.65953 0.25250
74.66668 0.25032
74.67090 0.24905
74.67731 0.24672
74.68385 0.24439
74.69052 0.24207
74.69731 0.23976
74.70424 0.23747
74.71130 0.23518
74.71441 0.23419
74.72068 0.23177
74.72709 0.22936
74.73363 0.22696
74.74032 0.22457
74.74714 0.22218
74.75412 0.21981
74.75590 0.21922
74.76204 0.21672
74.76833 0.21424
74.77476 0.21177
74.78134 0.20930
74.78808 0.20684
74.79498 0.20440
74.79515 0.20434
74.80115 0.20179
74.80731 0.19924
74.81363 0.19670
74.82011 0.19418
74.82677 0.19166
74.83181 0.18979
74.83767 0.18719
74.84370 0.18459
74.84990 0.18200
74.85628 0.17942
74.86284 0.17685
74.86548 0.17583
74.87117 0.17319
74.87705 0.17054
74.88310 0.16791
74.88935 0.16528
74.89567 0.16271
74.90113 0.16002
74.90679 0.15734
74.91264 0.15466
74.91870 0.15199
74.92177 0.15068
74.92692 0.14795
74.93226 0.14524
74.93781 0.14252
74.94322 0.13998
74.94791 0.13723
74.95279 0.13448
74.95788 0.13173
74.95955 0.13085
74.96358 0.12807
74.96779 0.12530
74.97060 0.12351
74.97372 0.12071
74.97672 0.11814
74.97839 0.11532
74.97934 0.11376
74.97944 0.11495
74.98132 0.11777
74.98169 0.11835
74.98487 0.12115
74.98782 0.12389
74.99205 0.12666
74.99611 0.12944
74.99887 0.13141
75.00391 0.13416
75.00876 0.13691
75.01341 0.13966
75.01519 0.14075
75.02083 0.14346
75.02626 0.14617
75.03149 0.14890
75.03653 0.15162
75.03665 0.15168
75.04269 0.15436
75.04853 0.15704
75.05416 0.15972
75.05962 0.16241
75.06275 0.16400
75.06907 0.16663
75.07518 0.16926
75.08111 0.17190
75.08687 0.17455
75.09244 0.17720
75.09293 0.17744
75.09943 0.18002
75.10575 0.18260
75.11189 0.18520
75.11786 0.18780
75.12366 0.19040
75.12661 0.19176
75.13324 0.19428
75.13970 0.19681
75.14600 0.19935
75.15214 0.20190
75.15813 0.20445
75.16327 0.20670
75.17001 0.20916
75.17659 0.21163
75.18303 0.21410
75.18931 0.21658
75.19545 0.21908
75.20146 0.22158
75.20251 0.22202
75.20935 0.22440
75.21604 0.22679
75.22260 0.22920
75.22902 0.23161
75.23530 0.23403
75.24146 0.23646
75.24401 0.23748
75.25094 0.23977
75.25774 0.24208
75.26442 0.24439
75.27097 0.24672
75.27739 0.24906
75.28370 0.25141
75.28752 0.25285
75.29455 0.25505
75.30146 0.25725
75.30825 0.25947
75.31493 0.26170
75.32149 0.26394
75.32794 0.26620
75.33286 0.26794
75.33998 0.27003
75.34699 0.27212
75.35390 0.27423
75.36070 0.27635
75.36740 0.27848
75.37399 0.28063
75.37988 0.28258
75.38708 0.28453
75.39419 0.28650
75.40120 0.28849
75.40812 0.29048
75.41494 0.29250
75.42167 0.29452
75.42830 0.29656
75.42845 0.29660
75.43573 0.29842
75.44292 0.30026
75.45002 0.30211
75.45704 0.30397
75.46397 0.30585
75.47082 0.30775
75.47758 0.30965
75.47846 0.30990
75.48579 0.31158
75.49305 0.31327
75.50023 0.31498
75.50733 0.31670
75.51435 0.31844
75.52130 0.32019
75.52817 0.32196
75.52977 0.32238
75.53714 0.32390
75.54444 0.32545
75.55168 0.32700
75.55884 0.32858
75.56594 0.33017
75.57297 0.33178
75.57993 0.33341
75.58225 0.33396
75.58964 0.33533
75.59697 0.33672
75.60424 0.33813
75.61145 0.33956
75.61859 0.34100
75.62568 0.34246
75.63271 0.34394
75.63574 0.34458
75.64313 0.34580
75.65047 0.34704
75.65775 0.34830
75.66499 0.34958
75.67217 0.35087
75.67930 0.35218
75.68637 0.35351
75.69006 0.35422
75.69744 0.35529
75.70478 0.35637
75.71207 0.35748
75.71932 0.35861
75.72652 0.35975
75.73367 0.36092
75.74078 0.36210
75.74504 0.36282
75.75240 0.36374
75.75973 0.36468
75.76701 0.36564
75.77426 0.36661
75.78147 0.36761
75.78864 0.36863
75.79577 0.36966
75.80047 0.37036
75.80781 0.37113
75.81512 0.37192
75.82240 0.37273
75.82965 0.37356
75.83686 0.37441
75.84404 0.37528
75.85119 0.37617
75.85616 0.37680
75.86348 0.37742
75.87077 0.37806
75.87804 0.37872
75.88528 0.37940
75.89250 0.38010
75.89969 0.38082
75.90685 0.38156
75.91192 0.38210
75.91921 0.38256
75.92649 0.38305
75.93375 0.38356
75.94099 0.38408
75.94821 0.38463
75.95541 0.38520
75.96259 0.38578
75.96758 0.38621
75.97486 0.38651
75.98213 0.38684
75.98938 0.38718
75.99662 0.38755
76.00385 0.38794
76.01106 0.38834
76.01825 0.38877
76.02302 0.38906
76.03028 0.38920
76.03754 0.38935
76.04479 0.38953
76.05203 0.38973
76.05926 0.38994
76.06649 0.39018
76.07370 0.39044
76.07816 0.39061
76.08541 0.39056
76.09265 0.39054
76.09989 0.39053
76.10713 0.39055
76.11437 0.39059
76.12161 0.39064
76.12885 0.39072
76.13298 0.39078
76.14020 0.39054
76.14742 0.39033
76.15465 0.39013
76.16189 0.38996
76.16913 0.38980
76.17638 0.38967
76.18363 0.38956
76.18752 0.38951
76.19470 0.38908
76.20190 0.38866
76.20911 0.38827
76.21633 0.38790
76.22357 0.38755
76.23082 0.38722
76.23809 0.38691
76.24191 0.38676
76.24904 0.38613
76.25620 0.38552
76.26338 0.38493
76.27059 0.38436
76.27781 0.38381
76.28505 0.38328
76.29232 0.38277
76.29637 0.38249
76.30345 0.38167
76.31057 0.38087
76.31771 0.38009
76.32488 0.37933
76.33209 0.37859
76.33932 0.37786
76.34657 0.37716
76.35120 0.37672
76.35824 0.37573
76.36531 0.37475
76.37242 0.37379
76.37957 0.37285
76.38675 0.37193
76.39397 0.37103
76.40122 0.37015
76.40684 0.36948
76.41384 0.36834
76.42089 0.36721
76.42799 0.36609
76.43512 0.36500
76.44230 0.36393
76.44952 0.36287
76.45679 0.36183
76.46379 0.36086
76.47080 0.35959
76.47787 0.35833
76.48498 0.35710
76.49214 0.35588
76.49935 0.35468
76.50661 0.35350
76.51392 0.35234
76.52127 0.35120
76.52269 0.35098
76.52977 0.34962
76.53691 0.34828
76.54409 0.34695
76.55134 0.34564
76.55864 0.34436
76.56599 0.34309
76.57340 0.34183
76.58086 0.34060
76.58430 0.34004
76.59152 0.33863
76.59880 0.33723
76.60614 0.33586
76.61354 0.33450
76.62100 0.33316
76.62852 0.33183
76.63610 0.33053
76.64374 0.32925
76.64945 0.32831
76.65690 0.32688
76.66442 0.32547
76.67200 0.32408
76.67965 0.32271
76.68736 0.32135
76.69514 0.32002
76.70298 0.31870
76.71089 0.31741
76.71886 0.31613
76.71905 0.31610
76.72683 0.31470
76.73469 0.31331
76.74261 0.31195
76.75060 0.31060
76.75866 0.30928
76.76680 0.30797
76.77499 0.30669
76.78326 0.30542
76.79160 0.30418
76.79401 0.30383
76.80222 0.30249
76.81051 0.30117
76.81887 0.29987
76.82731 0.29859
76.83582 0.29734
76.84439 0.29610
76.85304 0.29489
76.86176 0.29370
76.87055 0.29253
76.87512 0.29194
76.88386 0.29071
76.89267 0.28950
76.90155 0.28831
76.91051 0.28715
76.91954 0.28600
76.92865 0.28489
76.93782 0.28379
76.94706 0.28272
76.95637 0.28168
76.96290 0.28096
76.97223 0.27988
76.98162 0.27883
76.99108 0.27779
77.00061 0.27679
77.01021 0.27581
77.01988 0.27485
77.02962 0.27392
77.03942 0.27302
77.04928 0.27214
77.05739 0.27144
77.06731 0.27056
77.07728 0.26970
77.08732 0.26887
77.09743 0.26807
77.10759 0.26729
77.11781 0.26654
77.12808 0.26582
77.13841 0.26513
77.14880 0.26447
77.15786 0.26392
77.16831 0.26327
77.17881 0.26266
77.18936 0.26207
77.19995 0.26152
77.21059 0.26099
77.22126 0.26049
77.23198 0.26003
77.24274 0.25959
77.25353 0.25918
77.26270 0.25886
77.27354 0.25850
77.28441 0.25816
77.29531 0.25786
77.30624 0.25759
77.31718 0.25734
77.32815 0.25713
77.33913 0.25695
77.35012 0.25680
77.36113 0.25668
77.36938 0.25662
77.38040 0.25656
77.39142 0.25653
77.40245 0.25654
77.41347 0.25658
77.42449 0.25664
77.43550 0.25674
77.44651 0.25687
77.45750 0.25703
77.46847 0.25723
77.47475 0.25735
77.48569 0.25762
77.49660 0.25791
77.50749 0.25824
77.51835 0.25860
77.52917 0.25899
77.53996 0.25941
77.55072 0.25985
77.56144 0.26033
77.57211 0.26084
77.57556 0.26101
77.58615 0.26160
77.59669 0.26222
77.60717 0.26287
77.61760 0.26355
77.62798 0.26426
77.63830 0.26499
77.64857 0.26575
77.65877 0.26654
77.66892 0.26736
77.66895 0.26736
77.67896 0.26827
77.68890 0.26920
77.69877 0.27015
77.70857 0.27113
77.71830 0.27214
77.72796 0.27318
77.73754 0.27424
77.74705 0.27532
77.75290 0.27600
77.76217 0.27720
77.77136 0.27842
77.78047 0.27966
77.78949 0.28092
77.79844 0.28221
77.80730 0.28352
77.81608 0.28485
77.82478 0.28620
77.82632 0.28645
77.83476 0.28791
77.84311 0.28938
77.85138 0.29088
77.85956 0.29240
77.86765 0.29394
77.87566 0.29550
77.88359 0.29707
77.88898 0.29817
77.89655 0.29986
77.90404 0.30157
77.91144 0.30330
77.91876 0.30505
77.92599 0.30681
77.93314 0.30859
77.94021 0.31038
77.94129 0.31066
77.94801 0.31256
77.95464 0.31448
77.96119 0.31641
77.96766 0.31835
77.97405 0.32031
77.98037 0.32228
77.98405 0.32345
77.98993 0.32553
77.99574 0.32763
78.00148 0.32974
78.00714 0.33186
78.01274 0.33399
78.01824 0.33612
78.02335 0.33837
78.02838 0.34062
78.03335 0.34288
78.03825 0.34515
78.04309 0.34743
78.04495 0.34832
78.04932 0.35070
78.05362 0.35309
78.05786 0.35549
78.06205 0.35789
78.06523 0.35974
78.06890 0.36224
78.07251 0.36474
78.07608 0.36725
78.07960 0.36977
78.08009 0.37013
78.08310 0.37273
78.08606 0.37533
78.08898 0.37793
78.09046 0.37927
78.09283 0.38195
78.09517 0.38464
78.09721 0.38701
78.09896 0.38976
78.09963 0.39081
78.10619 0.38961
78.10933 0.38905
78.10949 0.38882
78.11191 0.38616
78.11437 0.38349
78.11623 0.38149
78.11924 0.37890
78.12229 0.37632
78.12538 0.37374
78.12660 0.37272
78.13021 0.37023
78.13386 0.36775
78.13756 0.36526
78.14131 0.36279
78.14146 0.36269
78.14568 0.36031
78.14996 0.35793
78.15429 0.35556
78.15869 0.35320
78.16174 0.35159
78.16661 0.34933
78.17155 0.34708
78.17655 0.34485
78.18161 0.34262
78.18675 0.34040
78.18845 0.33967
78.19401 0.33756
78.19964 0.33546
78.20534 0.33337
78.21111 0.33129
78.21695 0.32922
78.22265 0.32724
78.22893 0.32529
78.23529 0.32336
78.24173 0.32144
78.24824 0.31953
78.25483 0.31763
78.26150 0.31575
78.26540 0.31467
78.27245 0.31290
78.27957 0.31115
78.28677 0.30942
78.29406 0.30770
78.30142 0.30600
78.30887 0.30432
78.31640 0.30265
78.31771 0.30237
78.32554 0.30081
78.33345 0.29927
78.34144 0.29775
78.34951 0.29625
78.35766 0.29477
78.36590 0.29331
78.37422 0.29187
78.38037 0.29082
78.38899 0.28950
78.39768 0.28819
78.40644 0.28691
78.41529 0.28565
78.42421 0.28441
78.43322 0.28320
78.44229 0.28201
78.45145 0.28084
78.45379 0.28055
78.46315 0.27948
78.47257 0.27844
78.48207 0.27742
78.49163 0.27643
78.50126 0.27546
78.51096 0.27452
78.52073 0.27360
78.53056 0.27271
78.53774 0.27208
78.54774 0.27129
78.55780 0.27054
78.56791 0.26980
78.57808 0.26910
78.58829 0.26843
78.59856 0.26778
78.60888 0.26716
78.61925 0.26657
78.62966 0.26601
78.63113 0.26593
78.64162 0.26544
78.65214 0.26498
78.66270 0.26456
78.67329 0.26416
78.68392 0.26379
78.69457 0.26345
78.70525 0.26314
78.71595 0.26286
78.72667 0.26261
78.73194 0.26250
78.74269 0.26232
78.75346 0.26217
78.76425 0.26206
78.77504 0.26197
78.78583 0.26191
78.79663 0.26189
78.80743 0.26189
78.81823 0.26192
78.82902 0.26199
78.83731 0.26206
78.84809 0.26219
78.85886 0.26234
78.86962 0.26253
78.88035 0.26274
78.89107 0.26299
78.90177 0.26327
78.91244 0.26357
78.92309 0.26391
78.93371 0.26428
78.94400 0.26466
78.95456 0.26507
78.96509 0.26551
78.97559 0.26598
78.98605 0.26648
78.99646 0.26701
79.00684 0.26757
79.01717 0.26815
79.02745 0.26877
79.03769 0.26941
79.04788 0.27008
79.04883 0.27015
79.05899 0.27081
79.06910 0.27151
79.07916 0.27223
79.08917 0.27298
79.09911 0.27376
79.10900 0.27456
79.11884 0.27539
79.12861 0.27625
79.13832 0.27713
79.14797 0.27804
79.14930 0.27817
79.15895 0.27906
79.16853 0.27997
79.17804 0.28090
79.18750 0.28186
79.19689 0.28285
79.20621 0.28386
79.21547 0.28490
79.22465 0.28595
79.23377 0.28704
79.24282 0.28815
79.24379 0.28827
79.25287 0.28932
79.26189 0.29040
79.27084 0.29151
79.27972 0.29264
79.28853 0.29379
79.29728 0.29496
79.30595 0.29615
79.31455 0.29737
79.32308 0.29861
79.33154 0.29987
79.33158 0.29988
79.34013 0.30106
79.34861 0.30227
79.35702 0.30350
79.36536 0.30475
79.37364 0.30602
79.38184 0.30731
79.38998 0.30862
79.39805 0.30995
79.40605 0.31130
79.41269 0.31245
79.42076 0.31372
79.42877 0.31501
79.43672 0.31631
79.44460 0.31764
79.45241 0.31899
79.46016 0.32035
79.46784 0.32174
79.47546 0.32314
79.48300 0.32457
79.48765 0.32546
79.49534 0.32676
79.50297 0.32809
79.51054 0.32943
79.51805 0.33080
79.52549 0.33218
79.53287 0.33358
79.54019 0.33500
79.54745 0.33643
79.55465 0.33788
79.55724 0.33842
79.56464 0.33972
79.57199 0.34104
79.57928 0.34238
79.58651 0.34374
79.59368 0.34512
79.60080 0.34651
79.60786 0.34792
79.61486 0.34935
79.62181 0.35080
79.62239 0.35092
79.62960 0.35218
79.63675 0.35346
79.64384 0.35476
79.65089 0.35607
79.65788 0.35741
79.66482 0.35875
79.67171 0.36012
79.67855 0.36151
79.68400 0.36263
79.69108 0.36381
79.69811 0.36501
79.70509 0.36622
79.71203 0.36746
79.71892 0.36871
79.72576 0.36998
79.73256 0.37126
79.73931 0.37257
79.74291 0.37327
79.74992 0.37433
79.75689 0.37542
79.76185 0.37620
79.76894 0.37524
79.77606 0.37431
79.78321 0.37339
79.79040 0.37249
79.79763 0.37161
79.80488 0.37075
79.81218 0.36990
79.81950 0.36908
79.82686 0.36828
79.83425 0.36750
79.84167 0.36674
79.84912 0.36600
79.85660 0.36527
79.86411 0.36457
79.87164 0.36389
79.87921 0.36324
79.88680 0.36260
79.89442 0.36198
79.90207 0.36138
79.90973 0.36081
79.91743 0.36025
79.92514 0.35972
79.93288 0.35921
79.94064 0.35872
79.94843 0.35825
79.95623 0.35781
79.96405 0.35739
79.97189 0.35698
79.97974 0.35660
79.98761 0.35624
79.99550 0.35591
80.00340 0.35560
80.01132 0.35530
80.01924 0.35503
80.02718 0.35479
80.03513 0.35456
80.04309 0.35436
80.05106 0.35418
80.05903 0.35402
80.06702 0.35389
80.07500 0.35378
80.08300 0.35369
80.09099 0.35362
80.09899 0.35358
80.10699 0.35356
80.11499 0.35356
80.12299 0.35358
80.13099 0.35363
80.13898 0.35370
80.14697 0.35379
80.15496 0.35390
80.16294 0.35404
80.17092 0.35420
80.17888 0.35438
80.18684 0.35458
80.19479 0.35481
80.20273 0.35506
80.21065 0.35533
80.21857 0.35562
80.22647 0.35594
80.23435 0.35628
80.24222 0.35664
80.25008 0.35702
80.25791 0.35742
80.26573 0.35785
80.27353 0.35830
80.28131 0.35877
80.28907 0.35926
80.29681 0.35977
80.30452 0.36031
80.31221 0.36086
80.31988 0.36144
80.32752 0.36204
80.33514 0.36266
80.34273 0.36330
80.35029 0.36396
80.35783 0.36464
80.36533 0.36534
80.37281 0.36606
80.38026 0.36681
80.38767 0.36757
80.39506 0.36836
80.40241 0.36916
80.40974 0.36998
80.41702 0.37083
80.42428 0.37169
80.43150 0.37257
80.43869 0.37347
80.44584 0.37439
80.45296 0.37533
80.46004 0.37629
80.46708 0.37727
80.47409 0.37827
80.47632 0.37859
80.48321 0.37748
80.49013 0.37639
80.49709 0.37532
80.50409 0.37426
80.51114 0.37323
80.51663 0.37244
80.52339 0.37114
80.53020 0.36986
80.53706 0.36860
80.54396 0.36735
80.55091 0.36613
80.55791 0.36492
80.56495 0.36373
80.57096 0.36273
80.57767 0.36129
80.58444 0.35986
80.59126 0.35844
80.59814 0.35705
80.60507 0.35567
80.61205 0.35431
80.61909 0.35296
80.62445 0.35196
80.63110 0.35036
80.63781 0.34878
80.64458 0.34722
80.65142 0.34567
80.65831 0.34414
80.66527 0.34262
80.67229 0.34112
80.67693 0.34015
80.68349 0.33841
80.69013 0.33668
80.69683 0.33497
80.70361 0.33327
80.71045 0.33159
80.71736 0.32993
80.72434 0.32828
80.72824 0.32737
80.73471 0.32549
80.74125 0.32362
80.74786 0.32176
80.75456 0.31992
80.76133 0.31810
80.76818 0.31628
80.77510 0.31449
80.77825 0.31368
80.78459 0.31167
80.79103 0.30967
80.79754 0.30768
80.80414 0.30570
80.81082 0.30374
80.81760 0.30179
80.82445 0.29986
80.82682 0.29920
80.83304 0.29706
80.83935 0.29494
80.84575 0.29283
80.85224 0.29073
80.85883 0.28864
80.86551 0.28656
80.87229 0.28450
80.87384 0.28404
80.87992 0.28179
80.88610 0.27956
80.89238 0.27734
80.89877 0.27512
80.90525 0.27292
80.91184 0.27073
80.91854 0.26856
80.91918 0.26835
80.92513 0.26601
80.93118 0.26368
80.93734 0.26136
80.94361 0.25905
80.95000 0.25675
80.95650 0.25446
80.96269 0.25233
80.96850 0.24991
80.97443 0.24750
80.98048 0.24509
80.98665 0.24270
80.99294 0.24031
80.99935 0.23793
81.00418 0.23618
81.00987 0.23369
81.01569 0.23121
81.02163 0.22873
81.02770 0.22626
81.03390 0.22380
81.04024 0.22135
81.04343 0.22014
81.04899 0.21759
81.05469 0.21504
81.06053 0.21251
81.06650 0.20997
81.07262 0.20745
81.07889 0.20494
81.08009 0.20447
81.08552 0.20186
81.09110 0.19926
81.09682 0.19667
81.10270 0.19409
81.10873 0.19151
81.11376 0.18942
81.11904 0.18677
81.12447 0.18413
81.13005 0.18149
81.13581 0.17886
81.14173 0.17623
81.14394 0.17527
81.14901 0.17258
81.15424 0.16990
81.15963 0.16722
81.16521 0.16455
81.17005 0.16230
81.17482 0.15958
81.17976 0.15686
81.18488 0.15415
81.19018 0.15144
81.19150 0.15077
81.19585 0.14802
81.20036 0.14527
81.20504 0.14252
81.20783 0.14094
81.21156 0.13816
81.21545 0.13538
81.21887 0.13302
81.22177 0.13022
81.22480 0.12742
81.22500 0.12723
81.22654 0.12441
81.22762 0.12251
81.22772 0.12378
81.22947 0.12660
81.22998 0.12745
81.23293 0.13025
81.23576 0.13305
81.23610 0.13340
81.24004 0.13618
81.24382 0.13896
81.24714 0.14149
81.25184 0.14424
81.25637 0.14699
81.26072 0.14975
81.26347 0.15154
81.26872 0.15425
81.27378 0.15697
81.27867 0.15969
81.28340 0.16241
81.28492 0.16331
81.29054 0.16598
81.29599 0.16866
81.30126 0.17134
81.30637 0.17403
81.31103 0.17656
81.31691 0.17919
81.32261 0.18182
81.32815 0.18446
81.33354 0.18711
81.33877 0.18976
81.34121 0.19102
81.34726 0.19360
81.35315 0.19619
81.35888 0.19878
81.36446 0.20138
81.36991 0.20398
81.37489 0.20643
81.38106 0.20895
81.38708 0.21148
81.39296 0.21402
81.39870 0.21656
81.40431 0.21911
81.40979 0.22167
81.41155 0.22251
81.41782 0.22496
81.42395 0.22743
81.42996 0.22990
81.43583 0.23238
81.44158 0.23487
81.44721 0.23737
81.45079 0.23899
81.45715 0.24137
81.46339 0.24376
81.46950 0.24616
81.47550 0.24857
81.48138 0.25098
81.48715 0.25341
81.49229 0.25561
81.49874 0.25791
81.50507 0.26021
81.51130 0.26252
81.51741 0.26485
81.52342 0.26718
81.52932 0.26953
81.53513 0.27188
81.53580 0.27215
81.54233 0.27434
81.54877 0.27655
81.55510 0.27876
81.56133 0.28099
81.56747 0.28323
81.57351 0.28548
81.57945 0.28773
81.58114 0.28838
81.58776 0.29046
81.59429 0.29255
81.60073 0.29466
81.60707 0.29677
81.61333 0.29890
81.61950 0.30104
81.62558 0.30319
81.62815 0.30412
81.63486 0.30607
81.64147 0.30804
81.64801 0.31002
81.65446 0.31201
81.66083 0.31402
81.66712 0.31604
81.67332 0.31807
81.67673 0.31920
81.68350 0.32102
81.69020 0.32285
81.69681 0.32470
81.70336 0.32656
81.70983 0.32843
81.71622 0.33032
81.72254 0.33222
81.72673 0.33350
81.73356 0.33517
81.74031 0.33686
81.74700 0.33856
81.75362 0.34028
81.76017 0.34201
81.76665 0.34376
81.77307 0.34552
81.77804 0.34691
81.78490 0.34843
81.79170 0.34997
81.79843 0.35153
81.80511 0.35310
81.81173 0.35468
81.81829 0.35628
81.82135 0.35704
81.82919 0.35745
81.83701 0.35788
81.84480 0.35833
81.85258 0.35880
81.86034 0.35929
81.86807 0.35980
81.87579 0.36034
81.88348 0.36090
81.89114 0.36147
81.89878 0.36207
81.90640 0.36269
81.91399 0.36334
81.92155 0.36400
81.92908 0.36468
81.93659 0.36539
81.94406 0.36611
81.95151 0.36685
81.95892 0.36762
81.96631 0.36840
81.97366 0.36921
81.98098 0.37003
81.98826 0.37088
81.99552 0.37174
82.00274 0.37263
82.00992 0.37353
82.01707 0.37445
82.02419 0.37539
82.03126 0.37635
82.03831 0.37733
82.04531 0.37833
82.05228 0.37934
82.05921 0.38038
82.06610 0.38143
82.07296 0.38250
82.07977 0.38359
82.08655 0.38470
82.09329 0.38582
82.09998 0.38696
82.10664 0.38812
82.11326 0.38929
82.11984 0.39049
82.12638 0.39169
82.13287 0.39292
82.13933 0.39416
82.14575 0.39542
82.15212 0.39670
82.15846 0.39799
82.16475 0.39929
82.17100 0.40062
82.17721 0.40195
82.18338 0.40331
82.18951 0.40468
82.19559 0.40606
82.20164 0.40746
82.20764 0.40887
82.21360 0.41030
82.21952 0.41174
82.22540 0.41320
82.23123 0.41467
82.23703 0.41615
82.23853 0.41654
82.24526 0.41691
82.25198 0.41729
82.25869 0.41770
82.26538 0.41812
82.27130 0.41851
82.27805 0.41864
82.28480 0.41879
82.29154 0.41896
82.29827 0.41915
82.30500 0.41936
82.31172 0.41959
82.31844 0.41984
82.32514 0.42010
82.32644 0.42015
82.33317 0.42011
82.33990 0.42008
82.34664 0.42007
82.35337 0.42008
82.36010 0.42010
82.36684 0.42015
82.37356 0.42022
82.38029 0.42030
82.38126 0.42032
82.38797 0.42008
82.39468 0.41986
82.40140 0.41966
82.40813 0.41948
82.41486 0.41932
82.42160 0.41917
82.42834 0.41905
82.43509 0.41894
82.43580 0.41893
82.44247 0.41850
82.44916 0.41808
82.45586 0.41769
82.46258 0.41731
82.46930 0.41695
82.47604 0.41661
82.48279 0.41629
82.48954 0.41599
82.49019 0.41596
82.49682 0.41533
82.50347 0.41471
82.51014 0.41412
82.51684 0.41354
82.52355 0.41298
82.53027 0.41244
82.53702 0.41192
82.54378 0.41142
82.54465 0.41136
82.55123 0.41053
82.55784 0.40973
82.56448 0.40894
82.57114 0.40817
82.57783 0.40742
82.58454 0.40669
82.59128 0.40598
82.59804 0.40528
82.59948 0.40513
82.60602 0.40414
82.61260 0.40316
82.61920 0.40219
82.62584 0.40125
82.63250 0.40032
82.63920 0.39941
82.64593 0.39852
82.65268 0.39764
82.65512 0.39733
82.66163 0.39618
82.66818 0.39505
82.67477 0.39393
82.68139 0.39283
82.68805 0.39175
82.69475 0.39068
82.70149 0.38964
82.70826 0.38861
82.71207 0.38804
82.71859 0.38677
82.72515 0.38551
82.73175 0.38427
82.73840 0.38305
82.74509 0.38184
82.75182 0.38065
82.75859 0.37948
82.76541 0.37833
82.77097 0.37740
82.77755 0.37604
82.78418 0.37469
82.79086 0.37336
82.79758 0.37205
82.80435 0.37075
82.81116 0.36948
82.81803 0.36821
82.82494 0.36697
82.83190 0.36574
82.83258 0.36563
82.83929 0.36421
82.84605 0.36281
82.85287 0.36143
82.85973 0.36007
82.86665 0.35872
82.87363 0.35739
82.88065 0.35607
82.88772 0.35478
82.89485 0.35350
82.89773 0.35299
82.90465 0.35156
82.91164 0.35015
82.91868 0.34876
82.92577 0.34738
82.93293 0.34602
82.94013 0.34467
82.94740 0.34335
82.95472 0.34204
82.96209 0.34075
82.96733 0.33986
82.97457 0.33845
82.98186 0.33706
82.98922 0.33569
82.99663 0.33434
83.00411 0.33301
83.01165 0.33170
83.01924 0.33040
83.02690 0.32912
83.03461 0.32787
83.04228 0.32665
83.04992 0.32530
83.05762 0.32398
83.06539 0.32268
83.07322 0.32140
83.08110 0.32013
83.08906 0.31889
83.09707 0.31767
83.10514 0.31646
83.11328 0.31528
83.12147 0.31412
83.12339 0.31385
83.13152 0.31262
83.13971 0.31141
83.14796 0.31021
83.15627 0.30904
83.16465 0.30789
83.17309 0.30676
83.18159 0.30566
83.19016 0.30458
83.19878 0.30351
83.20746 0.30248
83.21118 0.30204
83.21985 0.30096
83.22858 0.29990
83.23737 0.29886
83.24622 0.29785
83.25513 0.29686
83.26410 0.29589
83.27312 0.29495
83.28221 0.29403
83.29135 0.29313
83.30054 0.29226
83.30567 0.29179
83.31489 0.29091
83.32416 0.29005
83.33349 0.28921
83.34288 0.28840
83.35231 0.28761
83.36180 0.28685
83.37133 0.28612
83.38092 0.28541
83.39055 0.28473
83.40022 0.28408
83.40614 0.28369
83.41586 0.28305
83.42562 0.28243
83.43542 0.28184
83.44527 0.28127
83.45515 0.28074
83.46507 0.28023
83.47502 0.27974
83.48501 0.27929
83.49503 0.27886
83.50508 0.27846
83.51098 0.27824
83.52106 0.27788
83.53118 0.27754
83.54131 0.27723
83.55147 0.27695
83.56165 0.27670
83.57184 0.27647
83.58205 0.27628
83.59227 0.27611
83.60251 0.27597
83.61275 0.27586
83.61766 0.27582
83.62791 0.27576
83.63817 0.27573
83.64842 0.27573
83.65868 0.27576
83.66894 0.27582
83.67918 0.27590
83.68942 0.27602
83.69966 0.27616
83.70988 0.27633
83.72008 0.27653
83.72304 0.27660
83.73321 0.27686
83.74337 0.27715
83.75350 0.27748
83.76361 0.27782
83.77369 0.27820
83.78375 0.27861
83.79377 0.27904
83.80376 0.27951
83.81372 0.28000
83.82364 0.28051
83.82384 0.28052
83.83370 0.28111
83.84351 0.28173
83.85327 0.28237
83.86299 0.28304
83.87267 0.28374
83.88229 0.28446
83.89187 0.28521
83.90139 0.28598
83.91086 0.28678
83.91723 0.28734
83.92655 0.28824
83.93580 0.28916
83.94500 0.29011
83.95414 0.29109
83.96321 0.29209
83.97223 0.29311
83.98117 0.29416
83.99006 0.29523
83.99888 0.29632
84.00118 0.29661
84.00981 0.29780
84.01837 0.29902
84.02686 0.30025
84.03528 0.30151
84.04363 0.30279
84.05191 0.30409
84.06011 0.30541
84.06825 0.30675
84.07460 0.30782
84.08245 0.30928
84.09024 0.31075
84.09795 0.31225
84.10558 0.31376
84.11314 0.31529
84.12063 0.31684
84.12804 0.31841
84.13538 0.31999
84.13726 0.32040
84.14431 0.32210
84.15129 0.32380
84.15820 0.32553
84.16503 0.32727
84.17178 0.32903
84.17847 0.33080
84.18509 0.33258
84.18957 0.33381
84.19583 0.33571
84.20201 0.33763
84.20812 0.33956
84.21416 0.34150
84.22014 0.34345
84.22605 0.34541
84.23189 0.34739
84.23233 0.34754
84.23781 0.34963
84.24323 0.35172
84.24858 0.35383
84.25387 0.35594
84.25910 0.35807
84.26427 0.36020
84.26652 0.36114
84.27128 0.36339
84.27597 0.36564
84.28061 0.36790
84.28519 0.37017
84.28972 0.37244
84.29323 0.37424
84.29730 0.37662
84.30131 0.37900
84.30528 0.38140
84.30919 0.38380
84.31306 0.38620
84.31352 0.38649
84.31693 0.38899
84.32030 0.39149
84.32363 0.39400
84.32692 0.39651
84.32837 0.39763
84.33117 0.40023
84.33192 0.40093
84.33816 0.39961
84.34445 0.39830
84.35077 0.39700
84.35714 0.39572
84.36354 0.39446
84.36999 0.39322
84.37648 0.39199
84.38301 0.39077
84.38953 0.38959
84.38974 0.38944
84.39366 0.38705
84.39764 0.38468
84.40166 0.38231
84.40574 0.37994
84.40987 0.37759
84.41002 0.37750
84.41455 0.37525
84.41914 0.37300
84.42378 0.37076
84.42848 0.36852
84.43324 0.36630
84.43673 0.36469
84.44190 0.36258
84.44713 0.36048
84.45243 0.35838
84.45778 0.35630
84.46320 0.35423
84.46868 0.35217
84.47092 0.35133
84.47677 0.34938
84.48269 0.34745
84.48867 0.34552
84.49471 0.34361
84.50083 0.34171
84.50701 0.33982
84.51326 0.33795
84.51368 0.33782
84.52024 0.33606
84.52686 0.33430
84.53356 0.33257
84.54032 0.33085
84.54716 0.32914
84.55406 0.32745
84.56104 0.32577
84.56599 0.32460
84.57328 0.32305
84.58063 0.32150
84.58806 0.31998
84.59556 0.31847
84.60313 0.31698
84.61077 0.31551
84.61848 0.31406
84.62626 0.31263
84.62865 0.31219
84.63667 0.31087
84.64476 0.30956
84.65291 0.30827
84.66113 0.30701
84.66942 0.30576
84.67778 0.30454
84.68620 0.30334
84.69469 0.30216
84.70207 0.30115
84.71078 0.30008
84.71955 0.29904
84.72839 0.29801
84.73728 0.29701
84.74623 0.29604
84.75524 0.29509
84.76431 0.29416
84.77344 0.29325
84.78262 0.29237
84.78602 0.29206
84.79533 0.29127
84.80469 0.29050
84.81411 0.28977
84.82356 0.28906
84.83307 0.28837
84.84262 0.28771
84.85221 0.28708
84.86184 0.28647
84.87152 0.28589
84.87941 0.28544
84.88918 0.28495
84.89898 0.28449
84.90881 0.28405
84.91867 0.28365
84.92856 0.28327
84.93847 0.28292
84.94841 0.28259
84.95837 0.28230
84.96835 0.28203
84.97835 0.28179
84.98022 0.28175
84.99024 0.28157
85.00027 0.28142
85.01032 0.28129
85.02037 0.28120
85.03042 0.28113
85.04048 0.28109
85.05055 0.28108
85.06061 0.28110
85.07067 0.28114
85.08072 0.28122
85.08560 0.28127
85.09564 0.28139
85.10568 0.28154
85.11570 0.28172
85.12571 0.28193
85.13570 0.28216
85.14568 0.28243
85.15563 0.28272
85.16557 0.28304
85.17548 0.28339
85.18536 0.28377
85.19227 0.28405
85.20212 0.28445
85.21194 0.28489
85.22172 0.28536
85.23147 0.28585
85.24119 0.28636
85.25087 0.28691
85.26052 0.28748
85.27012 0.28808
85.27969 0.28871
85.28921 0.28936
85.29711 0.28992
85.30658 0.29059
85.31601 0.29128
85.32539 0.29199
85.33472 0.29274
85.34401 0.29351
85.35325 0.29430
85.36244 0.29512
85.37157 0.29596
85.38065 0.29683
85.38968 0.29772
85.39758 0.29852
85.40657 0.29941
85.41550 0.30031
85.42438 0.30124
85.43321 0.30220
85.44198 0.30317
85.45069 0.30417
85.45934 0.30520
85.46794 0.30624
85.47648 0.30731
85.48495 0.30840
85.49207 0.30934
85.50054 0.31040
85.50895 0.31148
85.51730 0.31257
85.52559 0.31370
85.53382 0.31484
85.54200 0.31600
85.55011 0.31719
85.55816 0.31839
85.56615 0.31962
85.57408 0.32086
85.57986 0.32179
85.58783 0.32297
85.59574 0.32418
85.60359 0.32540
85.61138 0.32664
85.61911 0.32791
85.62679 0.32919
85.63440 0.33049
85.64195 0.33181
85.64944 0.33315
85.65688 0.33451
85.66097 0.33527
85.66850 0.33653
85.67597 0.33782
85.68339 0.33912
85.69075 0.34044
85.69805 0.34178
85.70529 0.34314
85.71248 0.34452
85.71961 0.34591
85.72668 0.34732
85.73370 0.34875
85.73592 0.34921
85.74309 0.35052
85.75021 0.35184
85.75728 0.35318
85.76429 0.35454
85.77125 0.35591
85.77815 0.35730
85.78500 0.35871
85.79180 0.36014
85.79854 0.36158
85.80523 0.36304
85.80552 0.36310
85.81242 0.36440
85.81928 0.36572
85.82608 0.36706
85.83284 0.36841
85.83954 0.36978
85.84619 0.37117
85.85280 0.37257
85.85935 0.37399
85.86586 0.37543
85.87067 0.37651
85.87739 0.37776
85.88406 0.37904
85.89068 0.38033
85.89726 0.38164
85.90380 0.38297
85.91029 0.38431
85.91673 0.38567
85.92313 0.38704
85.92948 0.38843
85.93228 0.38905
85.93888 0.39023
85.94544 0.39142
85.94787 0.39187
85.95440 0.39066
85.96098 0.38947
85.96759 0.38829
85.97424 0.38713
85.98093 0.38599
85.98767 0.38486
85.99444 0.38375
86.00125 0.38266
86.00810 0.38159
86.01498 0.38053
86.02191 0.37949
86.02887 0.37848
86.03587 0.37748
86.04291 0.37649
86.04998 0.37553
86.05709 0.37459
86.06423 0.37366
86.07141 0.37276
86.07863 0.37187
86.08587 0.37100
86.09316 0.37016
86.10047 0.36933
86.10782 0.36852
86.11520 0.36773
86.12261 0.36696
86.13005 0.36622
86.13752 0.36549
86.14502 0.36478
86.15255 0.36410
86.16011 0.36343
86.16769 0.36279
86.17530 0.36216
86.18294 0.36156
86.19060 0.36098
86.19829 0.36042
86.20600 0.35988
86.21373 0.35936
86.22148 0.35887
86.22926 0.35839
86.23705 0.35794
86.24487 0.35751
86.25270 0.35710
86.26055 0.35672
86.26842 0.35635
86.27630 0.35601
86.28420 0.35569
86.29211 0.35539
86.30003 0.35511
86.30797 0.35486
86.31592 0.35463
86.32387 0.35442
86.33184 0.35423
86.33981 0.35407
86.34779 0.35393
86.35578 0.35381
86.36377 0.35371
86.37176 0.35364
86.37976 0.35359
86.38776 0.35356
86.39576 0.35355
86.40376 0.35357
86.41176 0.35361
86.41975 0.35367
86.42774 0.35376
86.43573 0.35386
86.44372 0.35399
86.45169 0.35415
86.45966 0.35432
86.46762 0.35452
86.47558 0.35474
86.48352 0.35498
86.49145 0.35525
86.49936 0.35553
86.50727 0.35584
86.51516 0.35617
86.52303 0.35653
86.53089 0.35690
86.53873 0.35730
86.54656 0.35772
86.55436 0.35816
86.56215 0.35862
86.56991 0.35911
86.57766 0.35961
86.58538 0.36014
86.59308 0.36069
86.60075 0.36126
86.60840 0.36185
86.61603 0.36247
86.62362 0.36310
86.63120 0.36376
86.63874 0.36443
86.64625 0.36513
86.65374 0.36584
86.66120 0.36658
86.66862 0.36734
86.67602 0.36812
86.68338 0.36891
86.69071 0.36973
86.69801 0.37057
86.70528 0.37143
86.71251 0.37230
86.71971 0.37320
86.72687 0.37411
86.73400 0.37505
86.74109 0.37600
86.74814 0.37697
86.75516 0.37796
86.76214 0.37897
86.76909 0.38000
86.77599 0.38105
86.78286 0.38211
86.78969 0.38319
86.79648 0.38429
86.80323 0.38541
86.80995 0.38654
86.81662 0.38770
86.82111 0.38848
86.82738 0.38704
86.83370 0.38561
86.84007 0.38420
86.84648 0.38280
86.85294 0.38142
86.85945 0.38006
86.86600 0.37871
86.87260 0.37738
86.87273 0.37735
86.87893 0.37575
86.88518 0.37417
86.89148 0.37260
86.89784 0.37105
86.90425 0.36951
86.91072 0.36799
86.91723 0.36649
86.92381 0.36499
86.92521 0.36468
86.93133 0.36294
86.93751 0.36121
86.94375 0.35949
86.95005 0.35779
86.95641 0.35610
86.96283 0.35443
86.96931 0.35277
86.97585 0.35113
86.97652 0.35096
86.98254 0.34908
86.98864 0.34721
86.99479 0.34535
87.00102 0.34350
87.00731 0.34167
87.01367 0.33986
87.02010 0.33805
87.02652 0.33628
87.03244 0.33427
87.03843 0.33226
87.04449 0.33027
87.05063 0.32829
87.05683 0.32632
87.06312 0.32437
87.06948 0.32243
87.07510 0.32074
87.08089 0.31860
87.08677 0.31648
87.09272 0.31436
87.09875 0.31226
87.10487 0.31017
87.11107 0.30809
87.11735 0.30602
87.12212 0.30447
87.12779 0.30223
87.13354 0.29999
87.13938 0.29777
87.14531 0.29555
87.15133 0.29335
87.15744 0.29115
87.16364 0.28897
87.16746 0.28765
87.17300 0.28531
87.17863 0.28298
87.18436 0.28066
87.19019 0.27834
87.19611 0.27604
87.20213 0.27375
87.20825 0.27146
87.21097 0.27047
87.21639 0.26804
87.22191 0.26563
87.22753 0.26322
87.23325 0.26082
87.23909 0.25844
87.24503 0.25605
87.25108 0.25368
87.25246 0.25315
87.25777 0.25066
87.26318 0.24817
87.26870 0.24569
87.27433 0.24322
87.28007 0.24076
87.28594 0.23830
87.29170 0.23595
87.29689 0.23339
87.30219 0.23085
87.30761 0.22831
87.31315 0.22577
87.31882 0.22325
87.32462 0.22073
87.32836 0.21914
87.33343 0.21653
87.33862 0.21393
87.34393 0.21134
87.34938 0.20875
87.35496 0.20617
87.36069 0.20360
87.36204 0.20300
87.36696 0.20035
87.37201 0.19771
87.37719 0.19507
87.38252 0.19244
87.38800 0.18981
87.39222 0.18783
87.39694 0.18515
87.40181 0.18246
87.40681 0.17978
87.41197 0.17711
87.41729 0.17444
87.41833 0.17393
87.42278 0.17121
87.42737 0.16849
87.43211 0.16577
87.43701 0.16306
87.43978 0.16157
87.44383 0.15881
87.44802 0.15606
87.45236 0.15332
87.45611 0.15102
87.45958 0.14824
87.46319 0.14546
87.46694 0.14269
87.46715 0.14254
87.46985 0.13973
87.47265 0.13693
87.47328 0.13632
87.47472 0.13350
87.47590 0.13126
87.47600 0.13262
87.47763 0.13544
87.47825 0.13654
87.48101 0.13934
87.48367 0.14214
87.48437 0.14291
87.48806 0.14569
87.49161 0.14847
87.49503 0.15125
87.49542 0.15158
87.49982 0.15433
87.50406 0.15708
87.50815 0.15983
87.51175 0.16233
87.51665 0.16505
87.52140 0.16776
87.52599 0.17048
87.53044 0.17320
87.53320 0.17494
87.53846 0.17761
87.54356 0.18028
87.54851 0.18297
87.55332 0.18565
87.55799 0.18834
87.55931 0.18912
87.56480 0.19175
87.57015 0.19438
87.57535 0.19702
87.58041 0.19966
87.58534 0.20231
87.58949 0.20460
87.59514 0.20718
87.60066 0.20977
87.60603 0.21236
87.61128 0.21495
87.61640 0.21756
87.62141 0.22017
87.62317 0.22110
87.62893 0.22362
87.63457 0.22615
87.64009 0.22868
87.64548 0.23123
87.65075 0.23378
87.65591 0.23633
87.65983 0.23831
87.66569 0.24077
87.67143 0.24323
87.67706 0.24570
87.68257 0.24818
87.68798 0.25067
87.69327 0.25316
87.69847 0.25566
87.69907 0.25595
87.70501 0.25833
87.71085 0.26072
87.71658 0.26312
87.72221 0.26552
87.72773 0.26794
87.73316 0.27036
87.73849 0.27279
87.74056 0.27375
87.74659 0.27604
87.75252 0.27835
87.75835 0.28066
87.76409 0.28298
87.76973 0.28531
87.77528 0.28765
87.78074 0.28999
87.78407 0.29145
87.79019 0.29364
87.79621 0.29584
87.80214 0.29806
87.80798 0.30028
87.81374 0.30251
87.81941 0.30476
87.82500 0.30701
87.82942 0.30882
87.83561 0.31090
87.84171 0.31299
87.84774 0.31509
87.85369 0.31720
87.85956 0.31933
87.86535 0.32146
87.87106 0.32361
87.87643 0.32566
87.88270 0.32761
87.88889 0.32958
87.89501 0.33156
87.90105 0.33354
87.90702 0.33555
87.91293 0.33756
87.91876 0.33959
87.92452 0.34162
87.92501 0.34180
87.93134 0.34361
87.93760 0.34544
87.94379 0.34729
87.94992 0.34914
87.95598 0.35101
87.96198 0.35289
87.96407 0.35355
87.97207 0.35356
87.98007 0.35360
87.98806 0.35365
87.99606 0.35373
88.00405 0.35383
88.01203 0.35395
88.02001 0.35410
88.02798 0.35426
88.03594 0.35446
88.04390 0.35467
88.05184 0.35490
88.05978 0.35516
88.06770 0.35544
88.07561 0.35574
88.08350 0.35607
88.09138 0.35641
88.09925 0.35678
88.10709 0.35717
88.11492 0.35759
88.12273 0.35802
88.13053 0.35848
88.13830 0.35896
88.14605 0.35945
88.15378 0.35998
88.16148 0.36052
88.16916 0.36108
88.17682 0.36167
88.18445 0.36227
88.19206 0.36290
88.19964 0.36355
88.20719 0.36422
88.21472 0.36491
88.22221 0.36562
88.22968 0.36635
88.23711 0.36710
88.24452 0.36787
88.25189 0.36866
88.25923 0.36948
88.26654 0.37031
88.27382 0.37116
88.28106 0.37203
88.28827 0.37292
88.29544 0.37383
88.30258 0.37476
88.30968 0.37570
88.31675 0.37667
88.32378 0.37765
88.33077 0.37866
88.33773 0.37968
88.34465 0.38072
88.35153 0.38178
88.35837 0.38285
88.36517 0.38395
88.37193 0.38506
88.37866 0.38619
88.38534 0.38734
88.39199 0.38850
88.39859 0.38968
88.40516 0.39088
88.41169 0.39209
88.41817 0.39332
88.42461 0.39457
88.43102 0.39584
88.43738 0.39712
88.44370 0.39841
88.44998 0.39972
88.45622 0.40105
88.46241 0.40239
88.46857 0.40375
88.47468 0.40512
88.48075 0.40651
88.48678 0.40792
88.49277 0.40933
88.49872 0.41077
88.50463 0.41221
88.51049 0.41368
88.51631 0.41515
88.52209 0.41664
88.52783 0.41814
88.53353 0.41966
88.53919 0.42119
88.54481 0.42274
88.55038 0.42429
88.55592 0.42586
88.56141 0.42745
88.56686 0.42904
88.57227 0.43065
88.57765 0.43227
88.58298 0.43391
88.58827 0.43555
88.59352 0.43721
88.59873 0.43888
88.60390 0.44056
88.60904 0.44225
88.61413 0.44396
88.61918 0.44568
88.62420 0.44740
88.62918 0.44914
88.63104 0.44980
88.63730 0.44956
88.64358 0.44934
88.64986 0.44914
88.65614 0.44896
88.66243 0.44880
88.66873 0.44865
88.67503 0.44852
88.68133 0.44841
88.68408 0.44836
88.69031 0.44793
88.69656 0.44751
88.70282 0.44710
88.70909 0.44672
88.71537 0.44635
88.72166 0.44600
88.72796 0.44567
88.73427 0.44536
88.73847 0.44516
88.74466 0.44453
88.75088 0.44391
88.75711 0.44331
88.76335 0.44273
88.76962 0.44216
88.77590 0.44161
88.78219 0.44108
88.78850 0.44057
88.79292 0.44022
88.79907 0.43940
88.80525 0.43859
88.81145 0.43780
88.81766 0.43702
88.82391 0.43626
88.83017 0.43552
88.83645 0.43480
88.84276 0.43409
88.84776 0.43355
88.85387 0.43255
88.86001 0.43156
88.86617 0.43059
88.87237 0.42964
88.87859 0.42871
88.88483 0.42779
88.89111 0.42689
88.89741 0.42600
88.90339 0.42518
88.90948 0.42403
88.91559 0.42289
88.92174 0.42177
88.92792 0.42067
88.93414 0.41958
88.94038 0.41850
88.94666 0.41745
88.95297 0.41641
88.95931 0.41539
88.96035 0.41522
88.96643 0.41395
88.97256 0.41269
88.97873 0.41144
88.98493 0.41021
88.99117 0.40900
88.99744 0.40780
89.00375 0.40662
89.01010 0.40546
89.01649 0.40431
89.01925 0.40382
89.02540 0.40246
89.03159 0.40111
89.03782 0.39978
89.04409 0.39846
89.05040 0.39716
89.05675 0.39587
89.06315 0.39460
89.06958 0.39335
89.07606 0.39211
89.08086 0.39121
89.08713 0.38979
89.09344 0.38839
89.09980 0.38701
89.10621 0.38564
89.11266 0.38428
89.11915 0.38294
89.12570 0.38162
89.13228 0.38032
89.13892 0.37903
89.14559 0.37776
89.14601 0.37768
89.15248 0.37625
89.15900 0.37483
89.16557 0.37343
89.17219 0.37205
89.17886 0.37068
89.18557 0.36933
89.19234 0.36800
89.19915 0.36668
89.20602 0.36538
89.21293 0.36410
89.21561 0.36361
89.22237 0.36220
89.22918 0.36081
89.23605 0.35944
89.24296 0.35808
89.24993 0.35674
89.25696 0.35542
89.26403 0.35412
89.27116 0.35283
89.27833 0.35156
89.28556 0.35031
89.29056 0.34946
89.29770 0.34812
89.30489 0.34680
89.31214 0.34549
89.31944 0.34420
89.32680 0.34293
89.33421 0.34168
89.34167 0.34045
89.34919 0.33923
89.35676 0.33804
89.36439 0.33686
89.37167 0.33577
89.37926 0.33453
89.38691 0.33331
89.39461 0.33212
89.40237 0.33094
89.41018 0.32978
89.41805 0.32865
89.42597 0.32753
89.43395 0.32644
89.44197 0.32536
89.45006 0.32431
89.45819 0.32327
89.45946 0.32312
89.46756 0.32203
89.47571 0.32097
89.48392 0.31993
89.49218 0.31891
89.50049 0.31791
89.50885 0.31693
89.51727 0.31598
89.52573 0.31505
89.53425 0.31414
89.54281 0.31325
89.55142 0.31239
89.55395 0.31214
89.56256 0.31126
89.57123 0.31039
89.57994 0.30955
89.58870 0.30873
89.59750 0.30794
89.60635 0.30717
89.61525 0.30642
89.62418 0.30570
89.63316 0.30501
89.64218 0.30433
89.65124 0.30369
89.65442 0.30347
89.66351 0.30282
89.67263 0.30220
89.68178 0.30160
89.69098 0.30103
89.70020 0.30048
89.70947 0.29996
89.71876 0.29947
89.72808 0.29900
89.73743 0.29856
89.74681 0.29814
89.75621 0.29775
89.75926 0.29763
89.76868 0.29726
89.77813 0.29692
89.78761 0.29660
89.79710 0.29631
89.80660 0.29605
89.81613 0.29582
89.82567 0.29561
89.83522 0.29543
89.84478 0.29527
89.85435 0.29514
89.86393 0.29504
89.86594 0.29503
89.87552 0.29497
89.88511 0.29493
89.89470 0.29492
89.90429 0.29494
89.91388 0.29499
89.92346 0.29507
89.93304 0.29517
89.94261 0.29530
89.95217 0.29545
89.96172 0.29564
89.97126 0.29584
89.97131 0.29585
89.98083 0.29611
89.99033 0.29640
89.99980 0.29671
90.00926 0.29705
90.01870 0.29742
90.02811 0.29782
90.03749 0.29824
90.04685 0.29869
90.05618 0.29916
90.06548 0.29966
90.07212 0.30003
90.08134 0.30062
90.09051 0.30123
90.09965 0.30187
90.10875 0.30253
90.11781 0.30322
90.12683 0.30393
90.13580 0.30467
90.14473 0.30543
90.15361 0.30621
90.16245 0.30702
90.16551 0.30731
90.17422 0.30821
90.18289 0.30913
90.19150 0.31008
90.20005 0.31105
90.20856 0.31204
90.21701 0.31305
90.22540 0.31409
90.23374 0.31514
90.24202 0.31622
90.24946 0.31722
90.25753 0.31841
90.26554 0.31962
90.27349 0.32085
90.28138 0.32210
90.28921 0.32338
90.29697 0.32467
90.30468 0.32598
90.31232 0.32731
90.31990 0.32866
90.32288 0.32919
90.33023 0.33065
90.33751 0.33212
90.34473 0.33361
90.35189 0.33512
90.35898 0.33665
90.36601 0.33819
90.37297 0.33975
90.37987 0.34132
90.38554 0.34264
90.39214 0.34433
90.39867 0.34604
90.40514 0.34776
90.41155 0.34949
90.41789 0.35124
90.42417 0.35301
90.43038 0.35479
90.43654 0.35658
90.43785 0.35696
90.44370 0.35886
90.44949 0.36078
90.45522 0.36270
90.46089 0.36464
90.46650 0.36659
90.47205 0.36855
90.47754 0.37052
90.48060 0.37163
90.48574 0.37372
90.49081 0.37581
90.49583 0.37791
90.50079 0.38003
90.50570 0.38215
90.51056 0.38428
90.51480 0.38617
90.51925 0.38841
90.52365 0.39066
90.52800 0.39292
90.53230 0.39518
90.53655 0.39745
90.54075 0.39973
90.54151 0.40015
90.54532 0.40253
90.54908 0.40492
90.55280 0.40731
90.55647 0.40971
90.56010 0.41211
90.56179 0.41324
90.56185 0.41328
90.56773 0.41183
90.57365 0.41038
90.57960 0.40895
90.58560 0.40754
90.59165 0.40614
90.59773 0.40476
90.60385 0.40339
90.61002 0.40203
90.61623 0.40069
90.62248 0.39937
90.62877 0.39806
90.63510 0.39677
90.64147 0.39550
90.64788 0.39424
90.65434 0.39299
90.66083 0.39177
90.66737 0.39056
90.67395 0.38936
90.68056 0.38819
90.68722 0.38703
90.69376 0.38591
90.69869 0.38382
90.70367 0.38173
90.70872 0.37965
90.71381 0.37758
90.71896 0.37552
90.71921 0.37543
90.72467 0.37348
90.73020 0.37154
90.73578 0.36961
90.74142 0.36769
90.74713 0.36579
90.75289 0.36389
90.75871 0.36201
90.76196 0.36098
90.76809 0.35921
90.77428 0.35745
90.78053 0.35571
90.78685 0.35399
90.79322 0.35228
90.79966 0.35058
90.80616 0.34890
90.81273 0.34723
90.81427 0.34684
90.82109 0.34528
90.82796 0.34373
90.83490 0.34221
90.84190 0.34069
90.84897 0.33920
90.85609 0.33772
90.86328 0.33626
90.87053 0.33482
90.87693 0.33357
90.88443 0.33224
90.89199 0.33093
90.89961 0.32964
90.90729 0.32837
90.91503 0.32712
90.92283 0.32588
90.93068 0.32467
90.93860 0.32348
90.94657 0.32231
90.95035 0.32176
90.95850 0.32069
90.96671 0.31964
90.97496 0.31861
90.98327 0.31761
90.99163 0.31662
91.00005 0.31566
91.00851 0.31472
91.01703 0.31380
91.02559 0.31291
91.03420 0.31204
91.03430 0.31203
91.04301 0.31124
91.05177 0.31047
91.06057 0.30973
91.06941 0.30901
91.07830 0.30832
91.08722 0.30765
91.09618 0.30700
91.10518 0.30638
91.11421 0.30579
91.12328 0.30522
91.12769 0.30495
91.13683 0.30446
91.14600 0.30399
91.15520 0.30356
91.16442 0.30314
91.17367 0.30275
91.18294 0.30239
91.19223 0.30205
91.20155 0.30174
91.21088 0.30146
91.22022 0.30120
91.22850 0.30100
91.23788 0.30082
91.24727 0.30066
91.25667 0.30053
91.26607 0.30043
91.27548 0.30035
91.28490 0.30030
91.29432 0.30028
91.30374 0.30028
91.31316 0.30031
91.32257 0.30037
91.33198 0.30045
91.33387 0.30047
91.34327 0.30059
91.35267 0.30074
91.36205 0.30091
91.37143 0.30111
91.38079 0.30134
91.39013 0.30159
91.39946 0.30187
91.40877 0.30218
91.41806 0.30251
91.42733 0.30287
91.43657 0.30325
91.44055 0.30343
91.44977 0.30384
91.45896 0.30427
91.46813 0.30473
91.47727 0.30521
91.48637 0.30572
91.49545 0.30626
91.50450 0.30682
91.51351 0.30740
91.52248 0.30801
91.53142 0.30865
91.54032 0.30931
91.54539 0.30970
91.55426 0.31036
91.56309 0.31105
91.57188 0.31176
91.58063 0.31250
91.58933 0.31325
91.59800 0.31404
91.60662 0.31485
91.61520 0.31568
91.62373 0.31653
91.63221 0.31741
91.64065 0.31830
91.64586 0.31887
91.65428 0.31975
91.66265 0.32066
91.67097 0.32158
91.67925 0.32253
91.68747 0.32350
91.69565 0.32449
91.70377 0.32551
91.71185 0.32654
91.71987 0.32760
91.72784 0.32867
91.73576 0.32977
91.74035 0.33042
91.74828 0.33147
91.75616 0.33255
91.76399 0.33364
91.77177 0.33476
91.77949 0.33589
91.78716 0.33705
91.79478 0.33822
91.80235 0.33942
91.80986 0.34063
91.81732 0.34187
91.82473 0.34312
91.82813 0.34370
91.83560 0.34489
91.84301 0.34609
91.85037 0.34730
91.85768 0.34854
91.86494 0.34980
91.87214 0.35107
91.87930 0.35237
91.88639 0.35368
91.89344 0.35501
91.90044 0.35635
91.90738 0.35772
91.90925 0.35809
91.91630 0.35935
91.92330 0.36063
91.93026 0.36193
91.93716 0.36325
91.94401 0.36458
91.95082 0.36593
91.95757 0.36730
91.96427 0.36869
91.97093 0.37009
91.97753 0.37151
91.98408 0.37294
91.98420 0.37297
91.99092 0.37427
91.99759 0.37559
92.00422 0.37693
92.01079 0.37828
92.01733 0.37965
92.02381 0.38103
92.03025 0.38243
92.03663 0.38385
92.04298 0.38528
92.04927 0.38673
92.05380 0.38779
92.06027 0.38909
92.06669 0.39041
92.07307 0.39174
92.07941 0.39309
92.08570 0.39445
92.09195 0.39583
92.09815 0.39723
92.10431 0.39864
92.11043 0.40006
92.11651 0.40150
92.11895 0.40209
92.12524 0.40335
92.13149 0.40462
92.13770 0.40591
92.14388 0.40721
92.15001 0.40853
92.15114 0.40878
92.15714 0.40737
92.16319 0.40597
92.16928 0.40459
92.17541 0.40322
92.18158 0.40187
92.18779 0.40053
92.19405 0.39921
92.20034 0.39790
92.20668 0.39661
92.21306 0.39534
92.21948 0.39408
92.22594 0.39284
92.23244 0.39162
92.23898 0.39041
92.24556 0.38922
92.25218 0.38804
92.25884 0.38689
92.26554 0.38575
92.27228 0.38462
92.27906 0.38352
92.28588 0.38243
92.29273 0.38136
92.29963 0.38031
92.30656 0.37928
92.31353 0.37826
92.32054 0.37727
92.32758 0.37629
92.33466 0.37533
92.34178 0.37439
92.34893 0.37347
92.35612 0.37257
92.36334 0.37169
92.37060 0.37082
92.37789 0.36998
92.38521 0.36916
92.39256 0.36835
92.39995 0.36757
92.40736 0.36681
92.41481 0.36606
92.42229 0.36534
92.42980 0.36464
92.43733 0.36396
92.44489 0.36329
92.45248 0.36265
92.46010 0.36203
92.46774 0.36144
92.47541 0.36086
92.48310 0.36030
92.49082 0.35977
92.49855 0.35926
92.50631 0.35877
92.51409 0.35830
92.52189 0.35785
92.52971 0.35742
92.53755 0.35702
92.54540 0.35664
92.55327 0.35628
92.56116 0.35594
92.56906 0.35562
92.57697 0.35533
92.58490 0.35506
92.59283 0.35481
92.60078 0.35458
92.60874 0.35438
92.61671 0.35420
92.62468 0.35404
92.63266 0.35390
92.64065 0.35379
92.64864 0.35370
92.65664 0.35363
92.66464 0.35358
92.67264 0.35356
92.68064 0.35356
92.68863 0.35358
92.69663 0.35362
92.70463 0.35369
92.71262 0.35378
92.72061 0.35389
92.72859 0.35402
92.73656 0.35418
92.74453 0.35436
92.75249 0.35456
92.76044 0.35479
92.76838 0.35504
92.77631 0.35530
92.78422 0.35560
92.79212 0.35591
92.80001 0.35625
92.80788 0.35660
92.81574 0.35698
92.82358 0.35739
92.83140 0.35781
92.83920 0.35826
92.84698 0.35872
92.85474 0.35921
92.86248 0.35972
92.87019 0.36026
92.87789 0.36081
92.88556 0.36139
92.89320 0.36198
92.90082 0.36260
92.90841 0.36324
92.91598 0.36390
92.92352 0.36458
92.93103 0.36528
92.93851 0.36600
92.94596 0.36674
92.95338 0.36750
92.96076 0.36828
92.96812 0.36909
92.97545 0.36991
92.98274 0.37075
92.99000 0.37161
92.99722 0.37249
93.00441 0.37339
93.01156 0.37431
93.01868 0.37525
93.02577 0.37621
93.03282 0.37718
93.03983 0.37818
93.04680 0.37919
93.05374 0.38022
93.06063 0.38127
93.06749 0.38234
93.07432 0.38342
93.08110 0.38453
93.08784 0.38565
93.09455 0.38679
93.10121 0.38794
93.10783 0.38911
93.11442 0.39030
93.12096 0.39151
93.12747 0.39273
93.13393 0.39397
93.14035 0.39523
93.14534 0.39622
93.15133 0.39468
93.15738 0.39315
93.16347 0.39164
93.16961 0.39014
93.17349 0.38921
93.17922 0.38747
93.18500 0.38573
93.19084 0.38402
93.19673 0.38231
93.20267 0.38062
93.20866 0.37894
93.21471 0.37727
93.22081 0.37562
93.22480 0.37456
93.23044 0.37267
93.23614 0.37080
93.24190 0.36894
93.24772 0.36709
93.25359 0.36525
93.25953 0.36343
93.26552 0.36162
93.27157 0.35982
93.27480 0.35888
93.28034 0.35686
93.28594 0.35486
93.29161 0.35286
93.29734 0.35088
93.30314 0.34891
93.30900 0.34695
93.31493 0.34500
93.32092 0.34306
93.32338 0.34228
93.32880 0.34014
93.33430 0.33802
93.33986 0.33590
93.34550 0.33379
93.35121 0.33170
93.35699 0.32961
93.36284 0.32754
93.36877 0.32547
93.37040 0.32491
93.37571 0.32267
93.38109 0.32043
93.38655 0.31820
93.39208 0.31598
93.39770 0.31378
93.40339 0.31158
93.40916 0.30939
93.41502 0.30721
93.41573 0.30695
93.42093 0.30461
93.42620 0.30228
93.43155 0.29995
93.43699 0.29764
93.44251 0.29533
93.44812 0.29303
93.45381 0.29074
93.45925 0.28860
93.46432 0.28618
93.46948 0.28376
93.47473 0.28136
93.48008 0.27896
93.48551 0.27656
93.49104 0.27418
93.49666 0.27180
93.50074 0.27011
93.50571 0.26762
93.51077 0.26513
93.51592 0.26265
93.52117 0.26018
93.52653 0.25772
93.53198 0.25526
93.53754 0.25281
93.53998 0.25175
93.54484 0.24920
93.54979 0.24665
93.55486 0.24411
93.56002 0.24157
93.56530 0.23905
93.57069 0.23652
93.57619 0.23401
93.57664 0.23381
93.58138 0.23120
93.58623 0.22860
93.59119 0.22601
93.59627 0.22342
93.60146 0.22084
93.60678 0.21826
93.61031 0.21658
93.61492 0.21394
93.61964 0.21129
93.62448 0.20865
93.62944 0.20602
93.63453 0.20339
93.63976 0.20076
93.64050 0.20040
93.64492 0.19771
93.64946 0.19502
93.65413 0.19234
93.65894 0.18967
93.66387 0.18700
93.66661 0.18555
93.67077 0.18283
93.67506 0.18011
93.67948 0.17740
93.68404 0.17468
93.68806 0.17236
93.69185 0.16961
93.69576 0.16686
93.69980 0.16411
93.70399 0.16136
93.70439 0.16111
93.70764 0.15833
93.71101 0.15555
93.71450 0.15277
93.71543 0.15205
93.71795 0.14925
93.72057 0.14644
93.72156 0.14542
93.72290 0.14259
93.72418 0.14001
93.72428 0.14146
93.72581 0.14428
93.72653 0.14563
93.72912 0.14843
93.73162 0.15124
93.73265 0.15242
93.73612 0.15520
93.73946 0.15798
93.74268 0.16076
93.74370 0.16166
93.74783 0.16441
93.75182 0.16716
93.75568 0.16991
93.75942 0.17267
93.76003 0.17313
93.76464 0.17584
93.76910 0.17855
93.77344 0.18127
93.77764 0.18400
93.78148 0.18656
93.78642 0.18923
93.79122 0.19191
93.79588 0.19459
93.80042 0.19728
93.80483 0.19996
93.80759 0.20168
93.81275 0.20431
93.81777 0.20694
93.82267 0.20958
93.82744 0.21222
93.83210 0.21487
93.83665 0.21752
93.83777 0.21819
93.84307 0.22077
93.84826 0.22335
93.85332 0.22594
93.85827 0.22853
93.86311 0.23114
93.86784 0.23374
93.87145 0.23577
93.87686 0.23829
93.88216 0.24082
93.88735 0.24335
93.89243 0.24589
93.89741 0.24844
93.90229 0.25099
93.90707 0.25355
93.90811 0.25412
93.91361 0.25657
93.91900 0.25903
93.92430 0.26150
93.92949 0.26398
93.93459 0.26646
93.93960 0.26896
93.94451 0.27145
93.94735 0.27292
93.95293 0.27530
93.95841 0.27769
93.96380 0.28008
93.96910 0.28249
93.97431 0.28490
93.97944 0.28732
93.98447 0.28974
93.98884 0.29189
93.99450 0.29418
94.00007 0.29648
94.00556 0.29879
94.01096 0.30111
94.01628 0.30343
94.02151 0.30577
94.02667 0.30811
94.03175 0.31047
94.03235 0.31075
94.03809 0.31294
94.04374 0.31514
94.04932 0.31735
94.05482 0.31957
94.06025 0.32180
94.06560 0.32404
94.07087 0.32629
94.07608 0.32855
94.07769 0.32926
94.08350 0.33134
94.08924 0.33342
94.09491 0.33552
94.10051 0.33763
94.10603 0.33975
94.11149 0.34188
94.11688 0.34402
94.12221 0.34618
94.12471 0.34720
94.13059 0.34915
94.13641 0.35112
94.14216 0.35309
94.14784 0.35508
94.14849 0.35530
94.15641 0.35503
94.16435 0.35479
94.17230 0.35456
94.18026 0.35436
94.18823 0.35418
94.19621 0.35402
94.20419 0.35389
94.21217 0.35378
94.22017 0.35369
94.22816 0.35362
94.23616 0.35358
94.24416 0.35356
94.25216 0.35356
94.26016 0.35358
94.26816 0.35363
94.27615 0.35370
94.28414 0.35379
94.29213 0.35390
94.30011 0.35404
94.30809 0.35420
94.31605 0.35438
94.32401 0.35458
94.33196 0.35481
94.33990 0.35506
94.34782 0.35533
94.35574 0.35562
94.36364 0.35594
94.37152 0.35628
94.37939 0.35664
94.38725 0.35702
94.39508 0.35742
94.40290 0.35785
94.41070 0.35830
94.41848 0.35877
94.42624 0.35926
94.43398 0.35977
94.44169 0.36031
94.44938 0.36086
94.45705 0.36144
94.46469 0.36204
94.47231 0.36266
94.47990 0.36330
94.48746 0.36396
94.49500 0.36464
94.50250 0.36534
94.50998 0.36606
94.51743 0.36681
94.52485 0.36757
94.53223 0.36836
94.53958 0.36916
94.54691 0.36998
94.55420 0.37083
94.56145 0.37169
94.56867 0.37257
94.57586 0.37347
94.58301 0.37439
94.59013 0.37533
94.59721 0.37629
94.60425 0.37727
94.61126 0.37827
94.61823 0.37928
94.62516 0.38032
94.63206 0.38137
94.63891 0.38244
94.64573 0.38352
94.65251 0.38463
94.65925 0.38575
94.66595 0.38689
94.67261 0.38805
94.67923 0.38922
94.68581 0.39041
94.69235 0.39162
94.69885 0.39285
94.70531 0.39409
94.71173 0.39534
94.71811 0.39662
94.72445 0.39791
94.73074 0.39921
94.73699 0.40054
94.74321 0.40187
94.74938 0.40322
94.75551 0.40459
94.76160 0.40597
94.76764 0.40737
94.77365 0.40878
94.77961 0.41021
94.78553 0.41165
94.79141 0.41311
94.79725 0.41458
94.80305 0.41606
94.80881 0.41756
94.81452 0.41907
94.82019 0.42060
94.82583 0.42214
94.83142 0.42369
94.83697 0.42525
94.84248 0.42683
94.84795 0.42842
94.85337 0.43003
94.85876 0.43164
94.86411 0.43327
94.86941 0.43491
94.87468 0.43657
94.87991 0.43823
94.88510 0.43991
94.89024 0.44160
94.89535 0.44330
94.90042 0.44501
94.90545 0.44673
94.91044 0.44847
94.91539 0.45021
94.92031 0.45197
94.92519 0.45374
94.93002 0.45552
94.93482 0.45731
94.93959 0.45910
94.94431 0.46091
94.94900 0.46273
94.95365 0.46456
94.95827 0.46640
94.96285 0.46825
94.96739 0.47011
94.97190 0.47198
94.97637 0.47386
94.97855 0.47479
94.98448 0.47448
94.98675 0.47436
94.99256 0.47373
94.99839 0.47311
95.00423 0.47250
95.01009 0.47191
95.01596 0.47134
95.02185 0.47079
95.02775 0.47025
95.03367 0.46972
95.03959 0.46922
95.04120 0.46908
95.04698 0.46826
95.05277 0.46745
95.05858 0.46665
95.06441 0.46587
95.07026 0.46511
95.07613 0.46436
95.08202 0.46363
95.08792 0.46291
95.09385 0.46221
95.09604 0.46196
95.10177 0.46096
95.10753 0.45997
95.11331 0.45900
95.11912 0.45804
95.12494 0.45710
95.13080 0.45617
95.13667 0.45526
95.13726 0.45518
95.14210 0.45340
95.14698 0.45163
95.15191 0.44988
95.15687 0.44814
95.16187 0.44640
95.16690 0.44468
95.17198 0.44297
95.17710 0.44127
95.18225 0.43959
95.18745 0.43791
95.19268 0.43625
95.19795 0.43460
95.20327 0.43296
95.20862 0.43133
95.21402 0.42972
95.21945 0.42812
95.22493 0.42653
95.23045 0.42495
95.23601 0.42339
95.24160 0.42184
95.24724 0.42031
95.25293 0.41878
95.25865 0.41727
95.26441 0.41578
95.27022 0.41430
95.27606 0.41283
95.28195 0.41138
95.28788 0.40994
95.29385 0.40851
95.29987 0.40710
95.30592 0.40571
95.31202 0.40433
95.31816 0.40296
95.32434 0.40162
95.33056 0.40028
95.33682 0.39896
95.34312 0.39766
95.34946 0.39637
95.35585 0.39510
95.36228 0.39385
95.36874 0.39261
95.37525 0.39139
95.38180 0.39018
95.38839 0.38900
95.39502 0.38782
95.40169 0.38667
95.40839 0.38553
95.41514 0.38442
95.42193 0.38331
95.42875 0.38223
95.43562 0.38116
95.44252 0.38012
95.44946 0.37909
95.45644 0.37808
95.46345 0.37708
95.47050 0.37611
95.47759 0.37515
95.48471 0.37422
95.49187 0.37330
95.49906 0.37240
95.50629 0.37152
95.51355 0.37066
95.52085 0.36982
95.52818 0.36900
95.53554 0.36820
95.54293 0.36742
95.55035 0.36666
95.55780 0.36592
95.56529 0.36521
95.57280 0.36451
95.58034 0.36383
95.58626 0.36331
95.59329 0.36209
95.60037 0.36088
95.60749 0.35969
95.61467 0.35853
95.61995 0.35768
95.62707 0.35644
95.63425 0.35522
95.64147 0.35402
95.64874 0.35284
95.65606 0.35168
95.66343 0.35053
95.67084 0.34941
95.67830 0.34830
95.68581 0.34722
95.69337 0.34615
95.70097 0.34510
95.70774 0.34419
95.71534 0.34311
95.72299 0.34204
95.73068 0.34100
95.73843 0.33997
95.74621 0.33896
95.75405 0.33798
95.76193 0.33702
95.76985 0.33607
95.77782 0.33515
95.78583 0.33425
95.79388 0.33338
95.80198 0.33252
95.80223 0.33249
95.81031 0.33160
95.81844 0.33074
95.82661 0.32989
95.83483 0.32907
95.84308 0.32827
95.85137 0.32749
95.85970 0.32673
95.86807 0.32600
95.87648 0.32529
95.88493 0.32460
95.89340 0.32394
95.90192 0.32330
95.90270 0.32324
95.91122 0.32259
95.91978 0.32197
95.92838 0.32137
95.93700 0.32079
95.94565 0.32023
95.95434 0.31970
95.96305 0.31920
95.97179 0.31872
95.98055 0.31826
95.98934 0.31783
95.99815 0.31742
96.00698 0.31704
96.00754 0.31701
96.01639 0.31664
96.02526 0.31630
96.03415 0.31598
96.04305 0.31568
96.05198 0.31541
96.06091 0.31517
96.06986 0.31495
96.07882 0.31475
96.08780 0.31458
96.09678 0.31444
96.10577 0.31432
96.11421 0.31423
96.12321 0.31417
96.13221 0.31413
96.14122 0.31412
96.15022 0.31413
96.15923 0.31417
96.16822 0.31424
96.17722 0.31433
96.18621 0.31444
96.19519 0.31458
96.20416 0.31475
96.21313 0.31494
96.21959 0.31509
96.22853 0.31535
96.23745 0.31564
96.24635 0.31595
96.25523 0.31629
96.26410 0.31665
96.27294 0.31703
96.28176 0.31744
96.29056 0.31788
96.29933 0.31834
96.30808 0.31882
96.31680 0.31933
96.32040 0.31955
96.32905 0.32013
96.33767 0.32074
96.34626 0.32137
96.35481 0.32203
96.36333 0.32271
96.37181 0.32341
96.38025 0.32414
96.38866 0.32488
96.39702 0.32566
96.40535 0.32645
96.41363 0.32727
96.41379 0.32728
96.42198 0.32818
96.43012 0.32910
96.43821 0.33004
96.44625 0.33101
96.45425 0.33199
96.46221 0.33299
96.47011 0.33402
96.47796 0.33507
96.48577 0.33613
96.49352 0.33722
96.49774 0.33782
96.50532 0.33901
96.51285 0.34022
96.52033 0.34145
96.52775 0.34270
96.53512 0.34396
96.54243 0.34525
96.54969 0.34655
96.55689 0.34787
96.56404 0.34921
96.57113 0.35056
96.57116 0.35057
96.57806 0.35202
96.58491 0.35349
96.59170 0.35498
96.59844 0.35648
96.60511 0.35800
96.61174 0.35954
96.61830 0.36109
96.62481 0.36266
96.63126 0.36424
96.63382 0.36487
96.64002 0.36656
96.64616 0.36827
96.65225 0.36999
96.65828 0.37172
96.66425 0.37346
96.67017 0.37522
96.67603 0.37699
96.68184 0.37878
96.68613 0.38012
96.69163 0.38202
96.69707 0.38393
96.70246 0.38585
96.70780 0.38778
96.71308 0.38973
96.71831 0.39168
96.72349 0.39365
96.72862 0.39562
96.72888 0.39573
96.73371 0.39781
96.73848 0.39990
96.74320 0.40200
96.74788 0.40411
96.75250 0.40623
96.75708 0.40836
96.76161 0.41049
96.76308 0.41119
96.76726 0.41343
96.77140 0.41568
96.77550 0.41793
96.77954 0.42020
96.78355 0.42247
96.78751 0.42474
96.78979 0.42607
96.79208 0.42758
96.79757 0.42600
96.80310 0.42443
96.80867 0.42287
96.81429 0.42133
96.81994 0.41979
96.82564 0.41828
96.83137 0.41677
96.83715 0.41528
96.84297 0.41380
96.84883 0.41234
96.85473 0.41089
96.86068 0.40946
96.86666 0.40804
96.87269 0.40663
96.87876 0.40525
96.88487 0.40387
96.89102 0.40251
96.89721 0.40117
96.90345 0.39984
96.90972 0.39852
96.91604 0.39723
96.92240 0.39595
96.92879 0.39468
96.93523 0.39343
96.94172 0.39220
96.94824 0.39098
96.95480 0.38978
96.96140 0.38860
96.96804 0.38744
96.97472 0.38629
96.98145 0.38516
96.98821 0.38404
96.99501 0.38295
97.00184 0.38187
97.00872 0.38081
97.01564 0.37977
97.02259 0.37875
97.02958 0.37774
97.03330 0.37721
97.03928 0.37550
97.04530 0.37379
97.05138 0.37210
97.05752 0.37043
97.06255 0.36907
97.06895 0.36751
97.07541 0.36597
97.08192 0.36443
97.08848 0.36292
97.09510 0.36142
97.10178 0.35993
97.10851 0.35847
97.11530 0.35701
97.12214 0.35558
97.12521 0.35494
97.13226 0.35361
97.13935 0.35230
97.14650 0.35101
97.15371 0.34973
97.16096 0.34847
97.16827 0.34723
97.17563 0.34601
97.18304 0.34481
97.19051 0.34362
97.19802 0.34246
97.19863 0.34237
97.20629 0.34130
97.21399 0.34024
97.22174 0.33921
97.22954 0.33820
97.23739 0.33721
97.24528 0.33624
97.25321 0.33529
97.26119 0.33436
97.26922 0.33345
97.27728 0.33257
97.28258 0.33200
97.29076 0.33121
97.29899 0.33044
97.30726 0.32970
97.31556 0.32897
97.32390 0.32827
97.33227 0.32759
97.34068 0.32694
97.34912 0.32630
97.35759 0.32569
97.36610 0.32511
97.37463 0.32455
97.37596 0.32446
97.38456 0.32397
97.39317 0.32350
97.40181 0.32306
97.41048 0.32264
97.41916 0.32224
97.42787 0.32187
97.43659 0.32152
97.44534 0.32120
97.45410 0.32090
97.46288 0.32063
97.47167 0.32038
97.47677 0.32025
97.48559 0.32006
97.49442 0.31990
97.50325 0.31977
97.51209 0.31966
97.52093 0.31957
97.52978 0.31952
97.53864 0.31948
97.54749 0.31947
97.55634 0.31949
97.56519 0.31953
97.57404 0.31959
97.58215 0.31967
97.59099 0.31979
97.59982 0.31994
97.60864 0.32011
97.61745 0.32030
97.62626 0.32052
97.63504 0.32077
97.64382 0.32103
97.65258 0.32133
97.66132 0.32165
97.67004 0.32199
97.67875 0.32236
97.68743 0.32275
97.68883 0.32281
97.69750 0.32322
97.70614 0.32365
97.71476 0.32410
97.72335 0.32458
97.73192 0.32508
97.74046 0.32561
97.74898 0.32616
97.75746 0.32673
97.76592 0.32733
97.77434 0.32795
97.78273 0.32859
97.79109 0.32926
97.79366 0.32947
97.80200 0.33013
97.81031 0.33082
97.81858 0.33152
97.82681 0.33225
97.83501 0.33301
97.84316 0.33378
97.85129 0.33458
97.85937 0.33540
97.86741 0.33624
97.87541 0.33710
97.88337 0.33799
97.89129 0.33889
97.89414 0.33922
97.90205 0.34010
97.90993 0.34100
97.91776 0.34193
97.92555 0.34287
97.93329 0.34383
97.94099 0.34481
97.94865 0.34582
97.95627 0.34684
97.96383 0.34789
97.97135 0.34895
97.97883 0.35003
97.98626 0.35114
97.98862 0.35149
97.99608 0.35255
98.00350 0.35362
98.01086 0.35471
98.01819 0.35582
98.02546 0.35695
98.03269 0.35810
98.03987 0.35927
98.04701 0.36045
98.05410 0.36165
98.06114 0.36288
98.06814 0.36412
98.07508 0.36537
98.07641 0.36562
98.08343 0.36680
98.09041 0.36799
98.09733 0.36921
98.10422 0.37044
98.11105 0.37169
98.11784 0.37296
98.12459 0.37425
98.13129 0.37555
98.13794 0.37687
98.14454 0.37820
98.15110 0.37956
98.15752 0.38091
98.16416 0.38217
98.17075 0.38345
98.17729 0.38474
98.18379 0.38606
98.19025 0.38738
98.19666 0.38873
98.20303 0.39009
98.20935 0.39147
98.21563 0.39286
98.22187 0.39427
98.22806 0.39569
98.23248 0.39672
98.23880 0.39802
98.24507 0.39934
98.25131 0.40067
98.25751 0.40202
98.26366 0.40339
98.26977 0.40476
98.27584 0.40616
98.28187 0.40757
98.28785 0.40899
98.29380 0.41043
98.29970 0.41188
98.30208 0.41247
98.30816 0.41377
98.31420 0.41509
98.32021 0.41642
98.32617 0.41776
98.33210 0.41912
98.33799 0.42049
98.34384 0.42188
98.34965 0.42329
98.35543 0.42470
98.36116 0.42613
98.36475 0.42704
98.37026 0.42546
98.37580 0.42389
98.38139 0.42234
98.38701 0.42080
98.39268 0.41927
98.39839 0.41776
98.40414 0.41626
98.40993 0.41477
98.41577 0.41330
98.42164 0.41184
98.42756 0.41040
98.43352 0.40897
98.43952 0.40756
98.44556 0.40616
98.45164 0.40477
98.45776 0.40340
98.46393 0.40205
98.47014 0.40071
98.47639 0.39939
98.48268 0.39808
98.48901 0.39679
98.49538 0.39551
98.50179 0.39425
98.50825 0.39301
98.51474 0.39178
98.52128 0.39057
98.52785 0.38938
98.53447 0.38820
98.54112 0.38704
98.54782 0.38590
98.55455 0.38477
98.56133 0.38367
98.56814 0.38258
98.57499 0.38151
98.58188 0.38045
98.58881 0.37942
98.59577 0.37840
98.60278 0.37740
98.60982 0.37642
98.61689 0.37546
98.62400 0.37452
98.63115 0.37359
98.63833 0.37269
98.64555 0.37180
98.65280 0.37094
98.66008 0.37009
98.66740 0.36927
98.67475 0.36846
98.68213 0.36767
98.68955 0.36691
98.69699 0.36616
98.70446 0.36544
98.71197 0.36473
98.71950 0.36405
98.72706 0.36338
98.73464 0.36274
98.74226 0.36212
98.74990 0.36152
98.75756 0.36094
98.76525 0.36038
98.77296 0.35984
98.78069 0.35933
98.78845 0.35883
98.79623 0.35836
98.80402 0.35791
98.81184 0.35748
98.81967 0.35707
98.82752 0.35669
98.83539 0.35632
98.84328 0.35598
98.85117 0.35566
98.85909 0.35537
98.86701 0.35509
98.87495 0.35484
98.88289 0.35461
98.89085 0.35440
98.89882 0.35422
98.90679 0.35406
98.91477 0.35392
98.92276 0.35380
98.93075 0.35371
98.93874 0.35363
98.94674 0.35359
98.95474 0.35356
98.96274 0.35355
98.97074 0.35357
98.97874 0.35361
98.98673 0.35368
98.99473 0.35376
99.00271 0.35387
99.01070 0.35401
99.01867 0.35416
99.02664 0.35434
99.03460 0.35454
99.04255 0.35476
99.05049 0.35500
99.05842 0.35527
99.06634 0.35556
99.07424 0.35587
99.08213 0.35620
99.09001 0.35655
99.09786 0.35693
99.10570 0.35733
99.11353 0.35775
99.12133 0.35820
99.12911 0.35866
99.13688 0.35915
99.14462 0.35965
99.15234 0.36018
99.16004 0.36073
99.16771 0.36131
99.17536 0.36190
99.18298 0.36251
99.19057 0.36315
99.19814 0.36381
99.20569 0.36448
99.21320 0.36518
99.22068 0.36590
99.22814 0.36664
99.23556 0.36740
99.24295 0.36818
99.25031 0.36898
99.25764 0.36979
99.26494 0.37063
99.27220 0.37149
99.27943 0.37237
99.28663 0.37327
99.29379 0.37418
99.30091 0.37512
99.30800 0.37607
99.31505 0.37705
99.32207 0.37804
99.32905 0.37905
99.33599 0.38008
99.34289 0.38113
99.34976 0.38219
99.35658 0.38328
99.36337 0.38438
99.37012 0.38550
99.37683 0.38663
99.38350 0.38778
99.39013 0.38896
99.39672 0.39014
99.40327 0.39135
99.40978 0.39257
99.41625 0.39381
99.42267 0.39506
99.42906 0.39633
99.43541 0.39762
99.44171 0.39892
99.44797 0.40024
99.45420 0.40157
99.45821 0.40244
99.46390 0.40078
99.46964 0.39913
99.47308 0.39815
99.47838 0.39627
99.48374 0.39439
99.48915 0.39253
99.49461 0.39068
99.50012 0.38884
99.50568 0.38701
99.51130 0.38519
99.51696 0.38339
99.52269 0.38160
99.52308 0.38148
99.52829 0.37946
99.53355 0.37745
99.53887 0.37545
99.54425 0.37347
99.54969 0.37149
99.55518 0.36953
99.56073 0.36757
99.56634 0.36563
99.57165 0.36382
99.57676 0.36168
99.58192 0.35956
99.58714 0.35744
99.59243 0.35533
99.59778 0.35323
99.60319 0.35114
99.60867 0.34906
99.61421 0.34699
99.61867 0.34535
99.62366 0.34310
99.62872 0.34086
99.63385 0.33864
99.63904 0.33642
99.64430 0.33420
99.64963 0.33200
99.65503 0.32981
99.66050 0.32763
99.66401 0.32625
99.66889 0.32391
99.67384 0.32157
99.67887 0.31925
99.68396 0.31693
99.68914 0.31462
99.69438 0.31232
99.69971 0.31003
99.70511 0.30774
99.70753 0.30674
99.71230 0.30431
99.71714 0.30190
99.72207 0.29949
99.72708 0.29709
99.73216 0.29469
99.73734 0.29230
99.74259 0.28993
99.74793 0.28755
99.74902 0.28708
99.75369 0.28458
99.75844 0.28210
99.76327 0.27962
99.76819 0.27714
99.77320 0.27467
99.77831 0.27221
99.78350 0.26976
99.78826 0.26756
99.79282 0.26500
99.79748 0.26245
99.80222 0.25991
99.80706 0.25738
99.81200 0.25485
99.81703 0.25232
99.82217 0.24980
99.82492 0.24848
99.82938 0.24587
99.83393 0.24327
99.83858 0.24068
99.84333 0.23809
99.84819 0.23550
99.85315 0.23292
99.85823 0.23035
99.85860 0.23017
99.86293 0.22752
99.86736 0.22487
99.87189 0.22223
99.87653 0.21960
99.88129 0.21697
99.88616 0.21434
99.88878 0.21296
99.89293 0.21027
99.89720 0.20759
99.90157 0.20490
99.90606 0.20223
99.91068 0.19956
99.91489 0.19718
99.91880 0.19446
99.92282 0.19174
99.92696 0.18902
99.93122 0.18631
99.93561 0.18360
99.93634 0.18316
99.93990 0.18040
99.94357 0.17765
99.94735 0.17490
99.95126 0.17216
99.95266 0.17119
99.95572 0.16841
99.95888 0.16563
99.96215 0.16285
99.96371 0.16156
99.96608 0.15876
99.96853 0.15596
99.96984 0.15451

