#  Created by Sandify
#  https://sandify.org
#  Version: 0.2.8
#
#  Machine type: Polar
#    Max radius (mm): 100
#    Start point: none
#    End point: none
#  Content type: shape
#  Layer:
#    Shape: Circle
#    Name: polygon
#    Number of lobes: 1
#    Direction: clockwise
#    Visible: true
#    Initial width: 10
#    Initial height: 10
#    X offset: 0
#    Y offset: 0
#    Rotate (degrees): 0
#    Reverse path: true
#    Number of loops: 21
#    When transforming shape: smear
#    Scale: true
#      Scale (+/-): 41
#      Scale by: constant
#    Spin: false
#    Track: false
#    Fine tuning:
#      Connect to next layer: line
#      Draw portion of path (%): 100
#      Backtrack at end (%): 0
#      Rotate starting point (%): 0
#  Reverse export path: false
#
# File name: 'spiral_fine'
# File type: thetarho
#

1.61989 0.30261
1.64070 0.30248
1.66153 0.30248
1.66897 0.30251
1.68980 0.30238
1.71063 0.30238
1.71806 0.30241
1.73889 0.30228
1.75974 0.30228
1.76714 0.30231
1.78798 0.30218
1.80883 0.30218
1.81623 0.30221
1.83707 0.30208
1.85793 0.30208
1.86533 0.30211
1.88618 0.30198
1.90704 0.30198
1.91441 0.30201
1.93527 0.30188
1.95614 0.30188
1.96350 0.30191
1.98437 0.30178
2.00524 0.30178
2.01258 0.30181
2.03346 0.30168
2.05434 0.30167
2.06167 0.30171
2.08255 0.30157
2.10344 0.30157
2.11075 0.30161
2.13164 0.30147
2.15254 0.30147
2.15984 0.30151
2.18074 0.30137
2.20165 0.30137
2.20893 0.30140
2.22984 0.30127
2.25075 0.30127
2.25802 0.30130
2.27893 0.30117
2.29985 0.30117
2.30711 0.30120
2.32803 0.30107
2.34895 0.30107
2.35619 0.30110
2.37712 0.30097
2.39805 0.30097
2.40528 0.30100
2.42621 0.30087
2.44715 0.30087
2.45438 0.30090
2.47531 0.30077
2.49626 0.30077
2.50346 0.30080
2.52440 0.30067
2.54535 0.30067
2.55255 0.30070
2.57350 0.30057
2.59446 0.30057
2.60164 0.30060
2.62260 0.30046
2.64356 0.30046
2.65072 0.30049
2.67168 0.30036
2.69266 0.30036
2.69980 0.30039
2.72078 0.30026
2.74176 0.30026
2.74889 0.30030
2.76987 0.30016
2.79086 0.30016
2.79798 0.30019
2.81897 0.30006
2.83997 0.30006
2.84706 0.30009
2.86806 0.29996
2.88906 0.29996
2.89616 0.29999
2.91716 0.29986
2.93817 0.29986
2.94525 0.29989
2.96625 0.29976
2.98727 0.29976
2.99434 0.29979
3.01535 0.29966
3.03638 0.29966
3.04342 0.29969
3.06444 0.29956
3.08547 0.29956
3.09250 0.29959
3.11353 0.29945
3.13457 0.29946
3.14159 0.29949
3.16263 0.29935
3.18367 0.29935
3.19069 0.29938
3.21173 0.29925
3.23278 0.29925
3.23977 0.29928
3.26082 0.29915
3.28188 0.29915
3.28885 0.29918
3.30991 0.29905
3.33098 0.29905
3.33794 0.29908
3.35901 0.29895
3.38008 0.29895
3.38703 0.29898
3.40810 0.29885
3.42918 0.29885
3.43612 0.29888
3.45720 0.29875
3.47828 0.29875
3.48520 0.29878
3.50629 0.29865
3.52738 0.29865
3.53430 0.29868
3.55539 0.29855
3.57649 0.29855
3.58338 0.29858
3.60448 0.29845
3.62559 0.29845
3.63247 0.29848
3.65357 0.29834
3.67469 0.29835
3.68155 0.29838
3.70267 0.29824
3.72379 0.29824
3.73064 0.29827
3.75176 0.29814
3.77289 0.29814
3.77973 0.29817
3.80086 0.29804
3.82200 0.29804
3.82881 0.29807
3.84995 0.29794
3.87110 0.29794
3.87790 0.29797
3.89905 0.29784
3.92020 0.29784
3.92699 0.29787
3.94814 0.29774
3.96930 0.29774
3.97607 0.29777
3.99723 0.29764
4.01840 0.29764
4.02517 0.29767
4.04633 0.29754
4.06750 0.29754
4.07425 0.29757
4.09542 0.29744
4.11660 0.29744
4.12334 0.29747
4.14452 0.29734
4.16571 0.29734
4.17243 0.29737
4.19361 0.29724
4.21481 0.29724
4.22151 0.29727
4.24271 0.29714
4.26391 0.29714
4.27060 0.29717
4.29180 0.29703
4.31301 0.29704
4.31970 0.29707
4.34090 0.29693
4.36212 0.29693
4.36878 0.29696
4.38999 0.29683
4.41122 0.29683
4.41786 0.29686
4.43909 0.29673
4.46032 0.29673
4.46695 0.29676
4.48818 0.29663
4.50942 0.29663
4.51604 0.29666
4.53728 0.29653
4.55853 0.29653
4.56513 0.29656
4.58637 0.29643
4.60763 0.29643
4.61421 0.29646
4.63546 0.29633
4.65672 0.29633
4.66331 0.29636
4.68456 0.29623
4.70583 0.29623
4.71239 0.29626
4.73365 0.29613
4.75493 0.29613
4.76147 0.29616
4.78275 0.29603
4.80403 0.29603
4.81056 0.29605
4.83184 0.29592
4.85313 0.29593
4.85965 0.29595
4.88094 0.29582
4.90224 0.29583
4.90874 0.29585
4.93003 0.29572
4.95134 0.29572
4.95782 0.29575
4.97912 0.29562
5.00044 0.29562
5.00691 0.29565
5.02822 0.29552
5.04954 0.29552
5.05600 0.29555
5.07732 0.29542
5.09864 0.29542
5.10509 0.29545
5.12641 0.29532
5.14774 0.29532
5.15417 0.29535
5.17550 0.29522
5.19684 0.29522
5.20327 0.29525
5.22460 0.29512
5.24595 0.29512
5.25235 0.29515
5.27369 0.29502
5.29505 0.29502
5.30144 0.29505
5.32279 0.29491
5.34416 0.29492
5.35052 0.29494
5.37188 0.29481
5.39325 0.29482
5.39961 0.29484
5.42098 0.29471
5.44236 0.29472
5.44870 0.29474
5.47007 0.29461
5.49146 0.29462
5.49779 0.29464
5.51917 0.29451
5.54056 0.29451
5.54688 0.29454
5.56827 0.29441
5.58967 0.29441
5.59596 0.29444
5.61736 0.29431
5.63876 0.29431
5.64505 0.29434
5.66645 0.29421
5.68787 0.29421
5.69414 0.29424
5.71555 0.29411
5.73697 0.29411
5.74322 0.29414
5.76464 0.29401
5.78606 0.29401
5.79231 0.29404
5.81373 0.29391
5.83517 0.29391
5.84139 0.29394
5.86283 0.29381
5.88427 0.29381
5.89049 0.29384
5.91193 0.29371
5.93338 0.29371
5.93957 0.29373
5.96102 0.29360
5.98248 0.29361
5.98866 0.29363
6.01011 0.29350
6.03158 0.29351
6.03775 0.29353
6.05921 0.29340
6.08069 0.29341
6.08684 0.29343
6.10831 0.29330
6.12979 0.29330
6.13592 0.29333
6.15740 0.29320
6.17888 0.29320
6.18501 0.29323
6.20650 0.29310
6.22799 0.29310
6.23410 0.29313
6.25559 0.29300
6.27709 0.29300
6.28319 0.29303
6.30469 0.29290
6.32619 0.29290
6.33227 0.29293
6.35378 0.29280
6.37530 0.29280
6.38136 0.29283
6.40288 0.29270
6.42440 0.29270
6.43045 0.29273
6.45198 0.29260
6.47351 0.29260
6.47953 0.29263
6.50106 0.29249
6.52260 0.29250
6.52862 0.29252
6.55016 0.29239
6.57170 0.29240
6.57771 0.29242
6.59926 0.29229
6.62081 0.29230
6.62680 0.29232
6.64835 0.29219
6.66991 0.29220
6.67588 0.29222
6.69744 0.29209
6.71901 0.29210
6.72497 0.29212
6.74654 0.29199
6.76811 0.29199
6.77406 0.29202
6.79564 0.29189
6.81722 0.29189
6.82314 0.29192
6.84473 0.29179
6.86632 0.29179
6.87223 0.29182
6.89382 0.29169
6.91542 0.29169
6.92132 0.29172
6.94292 0.29159
6.96452 0.29159
6.97041 0.29162
6.99201 0.29149
7.01362 0.29149
7.01950 0.29152
7.04111 0.29138
7.06273 0.29139
7.06858 0.29141
7.09020 0.29128
7.11183 0.29129
7.11768 0.29131
7.13930 0.29118
7.16094 0.29119
7.16676 0.29121
7.18839 0.29108
7.21004 0.29109
7.21585 0.29111
7.23749 0.29098
7.25914 0.29099
7.26493 0.29101
7.28658 0.29088
7.30824 0.29089
7.31402 0.29091
7.33567 0.29078
7.35734 0.29078
7.36311 0.29081
7.38478 0.29068
7.40645 0.29068
7.41220 0.29071
7.43387 0.29058
7.45555 0.29058
7.46128 0.29061
7.48296 0.29048
7.50465 0.29048
7.51037 0.29051
7.53206 0.29037
7.55376 0.29038
7.55946 0.29040
7.58115 0.29027
7.60285 0.29028
7.60855 0.29030
7.63025 0.29017
7.65196 0.29018
7.65764 0.29020
7.67935 0.29007
7.70106 0.29008
7.70672 0.29010
7.72844 0.28997
7.75017 0.28998
7.75581 0.29000
7.77753 0.28987
7.79926 0.28988
7.80489 0.28990
7.82662 0.28977
7.84837 0.28978
7.85398 0.28980
7.87572 0.28967
7.89747 0.28967
7.90307 0.28970
7.92482 0.28957
7.94658 0.28957
7.95215 0.28960
7.97391 0.28947
7.99567 0.28947
8.00124 0.28950
8.02301 0.28937
8.04478 0.28937
8.05033 0.28940
8.07210 0.28927
8.09388 0.28927
8.09941 0.28930
8.12119 0.28917
8.14298 0.28917
8.14850 0.28920
8.17029 0.28906
8.19208 0.28907
8.19759 0.28909
8.21938 0.28896
8.24118 0.28897
8.24668 0.28899
8.26848 0.28886
8.29029 0.28887
8.29577 0.28889
8.31758 0.28876
8.33940 0.28877
8.34486 0.28879
8.36668 0.28866
8.38850 0.28867
8.39394 0.28869
8.41576 0.28856
8.43760 0.28857
8.44303 0.28859
8.46486 0.28846
8.48670 0.28847
8.49211 0.28849
8.51395 0.28836
8.53580 0.28836
8.54121 0.28839
8.56306 0.28826
8.58491 0.28826
8.59030 0.28829
8.61215 0.28815
8.63402 0.28816
8.63938 0.28818
8.66124 0.28805
8.68311 0.28806
8.68846 0.28809
8.71033 0.28795
8.73221 0.28796
8.73756 0.28798
8.75943 0.28785
8.78132 0.28786
8.78664 0.28788
8.80852 0.28775
8.83042 0.28776
8.83573 0.28778
8.85762 0.28765
8.87952 0.28766
8.88481 0.28768
8.90671 0.28755
8.92862 0.28756
8.93391 0.28758
8.95581 0.28745
8.97773 0.28746
8.98299 0.28748
9.00491 0.28735
9.02683 0.28736
9.03208 0.28738
9.05400 0.28725
9.07593 0.28726
9.08117 0.28728
9.10310 0.28715
9.12504 0.28716
9.13026 0.28718
9.15220 0.28705
9.17415 0.28705
9.17934 0.28708
9.20129 0.28695
9.22324 0.28695
9.22843 0.28698
9.25039 0.28684
9.27235 0.28685
9.27751 0.28687
9.29948 0.28674
9.32145 0.28675
9.32661 0.28677
9.34858 0.28664
9.37056 0.28665
9.37568 0.28667
9.39766 0.28654
9.41965 0.28655
9.42478 0.28657
9.44676 0.28644
9.46876 0.28645
9.47386 0.28647
9.49585 0.28634
9.51786 0.28635
9.52295 0.28637
9.54496 0.28624
9.56696 0.28625
9.57204 0.28627
9.59405 0.28614
9.61607 0.28615
9.62112 0.28617
9.64314 0.28604
9.66517 0.28604
9.67021 0.28607
9.69224 0.28594
9.71427 0.28595
9.71930 0.28597
9.74133 0.28584
9.76337 0.28584
9.76839 0.28587
9.79043 0.28573
9.81248 0.28574
9.81748 0.28576
9.83953 0.28563
9.86159 0.28564
9.86657 0.28566
9.88862 0.28553
9.91069 0.28554
9.91565 0.28556
9.93771 0.28543
9.95978 0.28544
9.96473 0.28546
9.98680 0.28533
10.00888 0.28534
10.01382 0.28536
10.03590 0.28523
10.05799 0.28524
10.06292 0.28526
10.08500 0.28513
10.10710 0.28514
10.11200 0.28516
10.13409 0.28503
10.15619 0.28504
10.16109 0.28506
10.18319 0.28493
10.20530 0.28494
10.21018 0.28496
10.23229 0.28483
10.25440 0.28484
10.25927 0.28486
10.28139 0.28473
10.30351 0.28473
10.30835 0.28475
10.33048 0.28462
10.35261 0.28463
10.35744 0.28465
10.37957 0.28452
10.40172 0.28453
10.40652 0.28455
10.42867 0.28442
10.45082 0.28443
10.45561 0.28445
10.47776 0.28432
10.49992 0.28433
10.50470 0.28435
10.52686 0.28422
10.54902 0.28423
10.55378 0.28425
10.57595 0.28412
10.59812 0.28413
10.60288 0.28415
10.62505 0.28402
10.64723 0.28403
10.65196 0.28405
10.67414 0.28392
10.69633 0.28393
10.70105 0.28395
10.72324 0.28382
10.74544 0.28383
10.75014 0.28385
10.77233 0.28372
10.79454 0.28373
10.79923 0.28374
10.82143 0.28361
10.84365 0.28362
10.84831 0.28364
10.87052 0.28351
10.89274 0.28353
10.89740 0.28355
10.91962 0.28342
10.94185 0.28342
10.94649 0.28344
10.96872 0.28331
10.99095 0.28332
10.99557 0.28334
11.01781 0.28321
11.04005 0.28322
11.04466 0.28324
11.06690 0.28311
11.08916 0.28312
11.09375 0.28314
11.11600 0.28301
11.13826 0.28302
11.14283 0.28304
11.16509 0.28291
11.18736 0.28292
11.19192 0.28294
11.21419 0.28281
11.23646 0.28282
11.24101 0.28284
11.26328 0.28271
11.28557 0.28272
11.29009 0.28274
11.31238 0.28261
11.33467 0.28262
11.33919 0.28264
11.36148 0.28251
11.38378 0.28252
11.38827 0.28253
11.41057 0.28240
11.43288 0.28241
11.43736 0.28243
11.45967 0.28230
11.48198 0.28231
11.48645 0.28233
11.50876 0.28220
11.53109 0.28221
11.53553 0.28223
11.55786 0.28210
11.58019 0.28211
11.58462 0.28213
11.60695 0.28200
11.62929 0.28201
11.63371 0.28203
11.65605 0.28190
11.67840 0.28191
11.68279 0.28193
11.70514 0.28180
11.72750 0.28181
11.73188 0.28183
11.75424 0.28170
11.77660 0.28171
11.78097 0.28173
11.80334 0.28160
11.82571 0.28161
11.83006 0.28163
11.85243 0.28150
11.87481 0.28151
11.87915 0.28153
11.90153 0.28140
11.92392 0.28141
11.92823 0.28143
11.95062 0.28130
11.97302 0.28131
11.97732 0.28133
11.99971 0.28120
12.02212 0.28121
12.02641 0.28122
12.04881 0.28109
12.07122 0.28110
12.07549 0.28112
12.09791 0.28099
12.12033 0.28100
12.12458 0.28102
12.14700 0.28089
12.16943 0.28090
12.17367 0.28092
12.19610 0.28079
12.21854 0.28080
12.22276 0.28082
12.24520 0.28069
12.26764 0.28070
12.27185 0.28072
12.29429 0.28059
12.31675 0.28060
12.32093 0.28062
12.34338 0.28049
12.36584 0.28050
12.37003 0.28052
12.39248 0.28039
12.41495 0.28040
12.41911 0.28042
12.44158 0.28029
12.46405 0.28030
12.46820 0.28032
12.49068 0.28019
12.51316 0.28020
12.51728 0.28022
12.53977 0.28008
12.56226 0.28010
12.56637 0.28011
12.58886 0.27998
12.61136 0.28000
12.61546 0.28001
12.63796 0.27988
12.66047 0.27989
12.66455 0.27991
12.68705 0.27978
12.70957 0.27979
12.71363 0.27981
12.73615 0.27968
12.75868 0.27969
12.76271 0.27971
12.78524 0.27958
12.80777 0.27959
12.81181 0.27961
12.83434 0.27948
12.85688 0.27949
12.86090 0.27951
12.88344 0.27938
12.90599 0.27939
12.90998 0.27941
12.93253 0.27928
12.95508 0.27929
12.95907 0.27931
12.98163 0.27918
13.00419 0.27919
13.00815 0.27921
13.03072 0.27908
13.05329 0.27909
13.05725 0.27910
13.07982 0.27897
13.10240 0.27899
13.10633 0.27900
13.12891 0.27887
13.15150 0.27889
13.15542 0.27890
13.17801 0.27877
13.20061 0.27879
13.20451 0.27880
13.22711 0.27867
13.24971 0.27868
13.25360 0.27870
13.27620 0.27857
13.29882 0.27858
13.30268 0.27860
13.32530 0.27847
13.34792 0.27848
13.35177 0.27850
13.37439 0.27837
13.39702 0.27838
13.40086 0.27840
13.42349 0.27827
13.44613 0.27828
13.44994 0.27830
13.47258 0.27817
13.49523 0.27818
13.49903 0.27820
13.52168 0.27807
13.54433 0.27808
13.54812 0.27810
13.57078 0.27797
13.59344 0.27798
13.59721 0.27800
13.61987 0.27787
13.64254 0.27788
13.64629 0.27789
13.66896 0.27776
13.69164 0.27778
13.69538 0.27779
13.71806 0.27766
13.74075 0.27768
13.74447 0.27769
13.76716 0.27756
13.78985 0.27758
13.79356 0.27759
13.81625 0.27746
13.83896 0.27748
13.84264 0.27749
13.86535 0.27736
13.88806 0.27737
13.89173 0.27739
13.91444 0.27726
13.93716 0.27727
13.94082 0.27729
13.96354 0.27716
13.98627 0.27717
13.98990 0.27719
14.01263 0.27706
14.03537 0.27707
14.03899 0.27709
14.06173 0.27696
14.08448 0.27697
14.08808 0.27699
14.11082 0.27686
14.13358 0.27687
14.13717 0.27688
14.15992 0.27676
14.18268 0.27677
14.18625 0.27678
14.20901 0.27665
14.23178 0.27667
14.23534 0.27668
14.25811 0.27655
14.28089 0.27657
14.28443 0.27658
14.30721 0.27645
14.33000 0.27647
14.33351 0.27648
14.35630 0.27635
14.37910 0.27636
14.38260 0.27638
14.40540 0.27625
14.42821 0.27626
14.43169 0.27628
14.45449 0.27615
14.47731 0.27616
14.48078 0.27618
14.50359 0.27605
14.52641 0.27606
14.52987 0.27608
14.55269 0.27595
14.57552 0.27596
14.57896 0.27598
14.60178 0.27585
14.62462 0.27586
14.62805 0.27588
14.65088 0.27575
14.67373 0.27576
14.67712 0.27577
14.69997 0.27565
14.72283 0.27566
14.72621 0.27568
14.74907 0.27554
14.77193 0.27556
14.77531 0.27557
14.79817 0.27544
14.82104 0.27546
14.82439 0.27547
14.84726 0.27534
14.87014 0.27536
14.87347 0.27537
14.89635 0.27524
14.91924 0.27526
14.92257 0.27527
14.94545 0.27514
14.96835 0.27515
14.97165 0.27517
14.99455 0.27504
15.01746 0.27505
15.02074 0.27507
15.04365 0.27494
15.06656 0.27495
15.06983 0.27497
15.09274 0.27484
15.11567 0.27485
15.11891 0.27487
15.14184 0.27474
15.16477 0.27475
15.16800 0.27477
15.19093 0.27464
15.21387 0.27465
15.21708 0.27466
15.24002 0.27454
15.26297 0.27455
15.26618 0.27457
15.28913 0.27444
15.31208 0.27445
15.31526 0.27446
15.33822 0.27433
15.36118 0.27435
15.36435 0.27436
15.38731 0.27423
15.41029 0.27425
15.41344 0.27426
15.43641 0.27413
15.45939 0.27415
15.46252 0.27416
15.48551 0.27403
15.50849 0.27405
15.51162 0.27406
15.53461 0.27393
15.55761 0.27395
15.56071 0.27396
15.58370 0.27383
15.60671 0.27384
15.60978 0.27386
15.63279 0.27373
15.65580 0.27374
15.65888 0.27376
15.68189 0.27363
15.70492 0.27364
15.70796 0.27366
15.73099 0.27353
15.75402 0.27354
15.75705 0.27355
15.78008 0.27343
15.80312 0.27344
15.80614 0.27345
15.82918 0.27333
15.85223 0.27334
15.85522 0.27335
15.87827 0.27322
15.90133 0.27324
15.90431 0.27325
15.92736 0.27312
15.95043 0.27314
15.95340 0.27315
15.97647 0.27302
15.99954 0.27304
16.00249 0.27305
16.02557 0.27292
16.04865 0.27294
16.05158 0.27295
16.07466 0.27282
16.09775 0.27284
16.10067 0.27285
16.12376 0.27272
16.14686 0.27274
16.14976 0.27275
16.17286 0.27262
16.19596 0.27263
16.19884 0.27265
16.22195 0.27252
16.24507 0.27254
16.24793 0.27255
16.27105 0.27242
16.29417 0.27243
16.29702 0.27245
16.32014 0.27232
16.34328 0.27233
16.34610 0.27234
16.36923 0.27221
16.39237 0.27223
16.39518 0.27224
16.41832 0.27211
16.44147 0.27213
16.44427 0.27214
16.46743 0.27201
16.49059 0.27203
16.49336 0.27204
16.51652 0.27191
16.53969 0.27193
16.54245 0.27194
16.56562 0.27181
16.58880 0.27183
16.59154 0.27184
16.61472 0.27171
16.63790 0.27173
16.64062 0.27174
16.66381 0.27161
16.68700 0.27163
16.68971 0.27164
16.71291 0.27151
16.73611 0.27153
16.73880 0.27154
16.76200 0.27141
16.78521 0.27142
16.78789 0.27143
16.81110 0.27131
16.83432 0.27132
16.83697 0.27134
16.86019 0.27121
16.88342 0.27122
16.88607 0.27123
16.90929 0.27111
16.93253 0.27112
16.93514 0.27114
16.95838 0.27101
16.98163 0.27102
16.98423 0.27103
17.00748 0.27090
17.03073 0.27092
17.03332 0.27093
17.05658 0.27080
17.07984 0.27082
17.08240 0.27083
17.10567 0.27070
17.12894 0.27072
17.13150 0.27073
17.15477 0.27060
17.17805 0.27062
17.18058 0.27063
17.20387 0.27050
17.22716 0.27052
17.22967 0.27053
17.25296 0.27040
17.27626 0.27042
17.27876 0.27043
17.30206 0.27030
17.32536 0.27032
17.32785 0.27033
17.35115 0.27020
17.37447 0.27022
17.37693 0.27023
17.40024 0.27010
17.42357 0.27012
17.42602 0.27013
17.44935 0.27000
17.47268 0.27001
17.47511 0.27002
17.49845 0.26990
17.52179 0.26991
17.52420 0.26992
17.54754 0.26979
17.57089 0.26981
17.57328 0.26982
17.59663 0.26969
17.61999 0.26971
17.62237 0.26972
17.64573 0.26959
17.66910 0.26961
17.67146 0.26962
17.69482 0.26949
17.71820 0.26951
17.72054 0.26952
17.74392 0.26939
17.76730 0.26941
17.76963 0.26942
17.79302 0.26929
17.81641 0.26931
17.81872 0.26932
17.84212 0.26919
17.86552 0.26921
17.86781 0.26922
17.89121 0.26909
17.91462 0.26911
17.91690 0.26912
17.94031 0.26899
17.96373 0.26900
17.96598 0.26901
17.98940 0.26889
18.01283 0.26891
18.01507 0.26892
18.03850 0.26879
18.06194 0.26880
18.06416 0.26881
18.08760 0.26868
18.11104 0.26870
18.11324 0.26871
18.13669 0.26858
18.16014 0.26860
18.16233 0.26861
18.18578 0.26848
18.20925 0.26850
18.21143 0.26851
18.23489 0.26838
18.25836 0.26840
18.26051 0.26841
18.28398 0.26828
18.30746 0.26830
18.30959 0.26831
18.33308 0.26818
18.35657 0.26820
18.35868 0.26821
18.38217 0.26808
18.40567 0.26810
18.40776 0.26811
18.43126 0.26798
18.45477 0.26800
18.45686 0.26801
18.48037 0.26788
18.50389 0.26790
18.50595 0.26791
18.52947 0.26778
18.55299 0.26779
18.55503 0.26780
18.57856 0.26767
18.60209 0.26769
18.60411 0.26770
18.62765 0.26757
18.65119 0.26759
18.65320 0.26760
18.67675 0.26747
18.70030 0.26749
18.70229 0.26750
18.72584 0.26737
18.74940 0.26739
18.75138 0.26740
18.77494 0.26727
18.79851 0.26729
18.80047 0.26730
18.82404 0.26717
18.84762 0.26719
18.84956 0.26720
18.87314 0.26707
18.89672 0.26709
18.89865 0.26710
18.92224 0.26697
18.94583 0.26699
18.94773 0.26700
18.97133 0.26687
18.99493 0.26689
18.99681 0.26690
19.02042 0.26677
19.04404 0.26679
19.04591 0.26679
19.06953 0.26667
19.09315 0.26669
19.09499 0.26670
19.11862 0.26657
19.14225 0.26659
19.14408 0.26660
19.16772 0.26646
19.19136 0.26648
19.19317 0.26649
19.21681 0.26636
19.24046 0.26638
19.24226 0.26639
19.26591 0.26626
19.28957 0.26628
19.29134 0.26629
19.31500 0.26616
19.33867 0.26618
19.34043 0.26619
19.36410 0.26606
19.38778 0.26608
19.38952 0.26609
19.41320 0.26596
19.43688 0.26598
19.43861 0.26599
19.46229 0.26586
19.48599 0.26588
19.48769 0.26589
19.51138 0.26576
19.53509 0.26578
19.53678 0.26579
19.56048 0.26566
19.58420 0.26568
19.58587 0.26568
19.60958 0.26556
19.63330 0.26558
19.63495 0.26558
19.65868 0.26546
19.68241 0.26548
19.68405 0.26548
19.70778 0.26536
19.73152 0.26538
19.73313 0.26538
19.75687 0.26525
19.78062 0.26527
19.78221 0.26528
19.80596 0.26515
19.82972 0.26517
19.83131 0.26518
19.85507 0.26505
19.87884 0.26507
19.88039 0.26508
19.90416 0.26495
19.92794 0.26497
19.92948 0.26498
19.95325 0.26485
19.97704 0.26487
19.97857 0.26488
20.00236 0.26475
20.02615 0.26477
20.02765 0.26478
20.05145 0.26465
20.07525 0.26467
20.07674 0.26468
20.10055 0.26455
20.12436 0.26457
20.12583 0.26458
20.14964 0.26445
20.17346 0.26447
20.17491 0.26447
20.19873 0.26435
20.22257 0.26437
20.22400 0.26437
20.24783 0.26424
20.27167 0.26427
20.27309 0.26427
20.29693 0.26414
20.32078 0.26417
20.32218 0.26417
20.34603 0.26404
20.36989 0.26406
20.37127 0.26407
20.39513 0.26394
20.41900 0.26396
20.42035 0.26397
20.44422 0.26384
20.46810 0.26386
20.46944 0.26387
20.49331 0.26374
20.51720 0.26376
20.51853 0.26377
20.54242 0.26364
20.56631 0.26366
20.56762 0.26367
20.59151 0.26354
20.61542 0.26356
20.61671 0.26357
20.64061 0.26344
20.66453 0.26346
20.66579 0.26346
20.68971 0.26334
20.71363 0.26336
20.71487 0.26337
20.73880 0.26324
20.76273 0.26326
20.76397 0.26326
20.78790 0.26313
20.81184 0.26316
20.81306 0.26316
20.83700 0.26303
20.86095 0.26306
20.86214 0.26306
20.88609 0.26293
20.91005 0.26296
20.91122 0.26296
20.93518 0.26283
20.95915 0.26285
20.96032 0.26286
20.98429 0.26273
21.00827 0.26276
21.00940 0.26276
21.03337 0.26263
21.05736 0.26265
21.05849 0.26266
21.08248 0.26253
21.10648 0.26255
21.10758 0.26256
21.13157 0.26243
21.15558 0.26245
21.15666 0.26246
21.18067 0.26233
21.20468 0.26235
21.20575 0.26235
21.22977 0.26223
21.25379 0.26225
21.25484 0.26225
21.27886 0.26213
21.30289 0.26215
21.30393 0.26215
21.32797 0.26203
21.35201 0.26205
21.35301 0.26205
21.37706 0.26192
21.40111 0.26195
21.40210 0.26195
21.42615 0.26182
21.45021 0.26185
21.45119 0.26185
21.47525 0.26172
21.49932 0.26175
21.50028 0.26175
21.52435 0.26162
21.54843 0.26164
21.54936 0.26165
21.57344 0.26152
21.59753 0.26155
21.59845 0.26155
21.62254 0.26142
21.64663 0.26144
21.64753 0.26145
21.67163 0.26132
21.69574 0.26134
21.69663 0.26135
21.72073 0.26122
21.74485 0.26124
21.74571 0.26125
21.76982 0.26112
21.79395 0.26114
21.79479 0.26114
21.81892 0.26102
21.84306 0.26104
21.84388 0.26104
21.86802 0.26092
21.89216 0.26094
21.89297 0.26094
21.91711 0.26081
21.94127 0.26084
21.94206 0.26084
21.96622 0.26071
21.99038 0.26074
21.99115 0.26074
22.01531 0.26061
22.03949 0.26064
22.04024 0.26064
22.06441 0.26051
22.08859 0.26054
22.08932 0.26054
22.11350 0.26041
22.13770 0.26044
22.13842 0.26044
22.16261 0.26031
22.18681 0.26034
22.18750 0.26034
22.21170 0.26021
22.23591 0.26023
22.23659 0.26024
22.26080 0.26011
22.28502 0.26013
22.28568 0.26014
22.30990 0.26001
22.33413 0.26003
22.33477 0.26003
22.35900 0.25991
22.38323 0.25993
22.38385 0.25993
22.40809 0.25981
22.43234 0.25983
22.43294 0.25983
22.45719 0.25971
22.48145 0.25973
22.48202 0.25973
22.50628 0.25960
22.53055 0.25963
22.53111 0.25963
22.55538 0.25950
22.57966 0.25953
22.58020 0.25953
22.60448 0.25940
22.62876 0.25943
22.62929 0.25943
22.65357 0.25930
22.67787 0.25932
22.67837 0.25933
22.70267 0.25920
22.72697 0.25923
22.72746 0.25923
22.75177 0.25910
22.77608 0.25912
22.77655 0.25913
22.80086 0.25900
22.82518 0.25903
22.82563 0.25903
22.84996 0.25890
22.87429 0.25892
22.87472 0.25892
22.89905 0.25880
22.92340 0.25882
22.92382 0.25882
22.94816 0.25870
22.97251 0.25872
22.97290 0.25872
22.99725 0.25860
23.02161 0.25862
23.02199 0.25862
23.04635 0.25850
23.07072 0.25852
23.07107 0.25852
23.09544 0.25839
23.11982 0.25842
23.12016 0.25842
23.14454 0.25829
23.16893 0.25832
23.16925 0.25832
23.19364 0.25819
23.21804 0.25822
23.21834 0.25822
23.24273 0.25809
23.26714 0.25812
23.26742 0.25812
23.29183 0.25799
23.31624 0.25802
23.31650 0.25802
23.34092 0.25789
23.36535 0.25792
23.36559 0.25792
23.39002 0.25779
23.41446 0.25781
23.41469 0.25781
23.43912 0.25769
23.46357 0.25771
23.46377 0.25771
23.48822 0.25759
23.51268 0.25761
23.51286 0.25761
23.53731 0.25749
23.56178 0.25751
23.56194 0.25751
23.58641 0.25739
23.61089 0.25741
23.61104 0.25741
23.63551 0.25729
23.66000 0.25731
23.66012 0.25731
23.68461 0.25718
23.70910 0.25721
23.70921 0.25721
23.73370 0.25708
23.75821 0.25711
23.75830 0.25711
23.78280 0.25698
23.80732 0.25701
23.80738 0.25701
23.83190 0.25688
23.85642 0.25691
23.85647 0.25691
23.88099 0.25678
23.90553 0.25681
23.90555 0.25681
23.93009 0.25668
23.95463 0.25670
23.95464 0.25670
23.97919 0.25658
24.00372 0.25661
24.02828 0.25648
24.05282 0.25651
24.07738 0.25638
24.10191 0.25640
24.12648 0.25627
24.15099 0.25630
24.17557 0.25617
24.20008 0.25620
24.22467 0.25607
24.24917 0.25610
24.27377 0.25597
24.29825 0.25600
24.32286 0.25587
24.34734 0.25590
24.37196 0.25577
24.39643 0.25580
24.42106 0.25567
24.44552 0.25570
24.47016 0.25557
24.49460 0.25559
24.51925 0.25547
24.54369 0.25549
24.56835 0.25537
24.59278 0.25539
24.61745 0.25527
24.64188 0.25529
24.66655 0.25517
24.69095 0.25519
24.71564 0.25506
24.74004 0.25509
24.76474 0.25496
24.78913 0.25499
24.81384 0.25486
24.83822 0.25489
24.86294 0.25476
24.88731 0.25479
24.91204 0.25466
24.93639 0.25469
24.96113 0.25456
24.98548 0.25459
25.01023 0.25446
25.03456 0.25449
25.05932 0.25436
25.08365 0.25439
25.10842 0.25426
25.13274 0.25428
25.15752 0.25416
25.18182 0.25418
25.20661 0.25406
25.23091 0.25408
25.25571 0.25395
25.28001 0.25398
25.30481 0.25385
25.32910 0.25388
25.35391 0.25375
25.37818 0.25378
25.40301 0.25365
25.42726 0.25368
25.45210 0.25355
25.47635 0.25358
25.50120 0.25345
25.52544 0.25348
25.55030 0.25335
25.57453 0.25338
25.59939 0.25325
25.62362 0.25328
25.64849 0.25315
25.67270 0.25317
25.69759 0.25305
25.72179 0.25307
25.74669 0.25295
25.77088 0.25297
25.79579 0.25284
25.81996 0.25287
25.84488 0.25274
25.86905 0.25277
25.89398 0.25264
25.91814 0.25267
25.94307 0.25254
25.96723 0.25257
25.99217 0.25244
26.01631 0.25247
26.04127 0.25234
26.06540 0.25237
26.09037 0.25224
26.11450 0.25227
26.13947 0.25214
26.16358 0.25216
26.18856 0.25204
26.21267 0.25206
26.23766 0.25194
26.26176 0.25196
26.28676 0.25184
26.31084 0.25186
26.33585 0.25173
26.35992 0.25176
26.38495 0.25163
26.40902 0.25166
26.43405 0.25153
26.45811 0.25156
26.48315 0.25143
26.50718 0.25146
26.53224 0.25133
26.55627 0.25136
26.58133 0.25123
26.60537 0.25126
26.63044 0.25113
26.65445 0.25116
26.67954 0.25103
26.70354 0.25106
26.72863 0.25093
26.75262 0.25095
26.77773 0.25083
26.80172 0.25085
26.82683 0.25072
26.85080 0.25075
26.87592 0.25062
26.89989 0.25065
26.92503 0.25052
26.94898 0.25055
26.97413 0.25042
26.99806 0.25045
27.02322 0.25032
27.04715 0.25035
27.07232 0.25022
27.09624 0.25025
27.12142 0.25012
27.14533 0.25015
27.17051 0.25002
27.19441 0.25005
27.21960 0.24992
27.24350 0.24995
27.26871 0.24982
27.29258 0.24984
27.31780 0.24972
27.34167 0.24974
27.36690 0.24962
27.39077 0.24964
27.41600 0.24952
27.43985 0.24954
27.46510 0.24942
27.48894 0.24944
27.51419 0.24931
27.53802 0.24934
27.56328 0.24921
27.58711 0.24924
27.61239 0.24911
27.63620 0.24914
27.66149 0.24901
27.68528 0.24904
27.71058 0.24891
27.73437 0.24894
27.75968 0.24881
27.78346 0.24884
27.80878 0.24871
27.83255 0.24873
27.85788 0.24861
27.88163 0.24863
27.90697 0.24851
27.93073 0.24853
27.95608 0.24841
27.97981 0.24843
28.00517 0.24831
28.02890 0.24833
28.05427 0.24820
28.07798 0.24823
28.10336 0.24810
28.12707 0.24813
28.15247 0.24800
28.17616 0.24803
28.20156 0.24790
28.22525 0.24793
28.25066 0.24780
28.27433 0.24783
28.29976 0.24770
28.32342 0.24772
28.34886 0.24760
28.37251 0.24762
28.39795 0.24750
28.42160 0.24752
28.44705 0.24740
28.47069 0.24742
28.49615 0.24730
28.51978 0.24732
28.54525 0.24719
28.56886 0.24722
28.59434 0.24709
28.61794 0.24712
28.64344 0.24699
28.66704 0.24702
28.69255 0.24689
28.71612 0.24692
28.74164 0.24679
28.76520 0.24682
28.79073 0.24669
28.81429 0.24672
28.83983 0.24659
28.86339 0.24661
28.88893 0.24649
28.91247 0.24652
28.93803 0.24639
28.96155 0.24641
28.98712 0.24629
29.01065 0.24631
29.03622 0.24619
29.05973 0.24621
29.08532 0.24608
29.10882 0.24611
29.13442 0.24598
29.15791 0.24601
29.18352 0.24588
29.20700 0.24591
29.23262 0.24578
29.25608 0.24581
29.28171 0.24568
29.30517 0.24571
29.33081 0.24558
29.35426 0.24561
29.37991 0.24548
29.40334 0.24550
29.42900 0.24538
29.45244 0.24540
29.47811 0.24528
29.50152 0.24530
29.52720 0.24518
29.55061 0.24520
29.57630 0.24508
29.59970 0.24510
29.62540 0.24498
29.64878 0.24500
29.67449 0.24488
29.69787 0.24490
29.72359 0.24477
29.74696 0.24480
29.77270 0.24467
29.79604 0.24470
29.82179 0.24457
29.84513 0.24460
29.87089 0.24447
29.89422 0.24450
29.91999 0.24437
29.94331 0.24439
29.96909 0.24427
29.99240 0.24430
30.01819 0.24417
30.04148 0.24419
30.06728 0.24407
30.09056 0.24409
30.11637 0.24397
30.13965 0.24399
30.16548 0.24387
30.18874 0.24389
30.21457 0.24377
30.23782 0.24379
30.26367 0.24366
30.28691 0.24369
30.31277 0.24356
30.33600 0.24359
30.36187 0.24346
30.38509 0.24349
30.41097 0.24336
30.43417 0.24339
30.46006 0.24326
30.48326 0.24329
30.50916 0.24316
30.53235 0.24319
30.55826 0.24306
30.58144 0.24308
30.60736 0.24296
30.63053 0.24298
30.65646 0.24286
30.67961 0.24288
30.70555 0.24276
30.72871 0.24278
30.75466 0.24266
30.77778 0.24268
30.80375 0.24255
30.82688 0.24258
30.85285 0.24245
30.87597 0.24248
30.90195 0.24235
30.92505 0.24238
30.95105 0.24225
30.97414 0.24228
31.00014 0.24215
31.02323 0.24218
31.04925 0.24205
31.07231 0.24208
31.09834 0.24195
31.12140 0.24197
31.14744 0.24185
31.17049 0.24187
31.19654 0.24175
31.21957 0.24177
31.24563 0.24165
31.26867 0.24167
31.29474 0.24155
31.31775 0.24157
31.34383 0.24145
31.36684 0.24147
31.39294 0.24134
31.41593 0.24137
31.44203 0.24124
31.46501 0.24127
31.49112 0.24114
31.51410 0.24117
31.54022 0.24104
31.56319 0.24107
31.58932 0.24094
31.61228 0.24097
31.63843 0.24084
31.66136 0.24086
31.68752 0.24074
31.71045 0.24076
31.73662 0.24064
31.75954 0.24066
31.78572 0.24054
31.80862 0.24056
31.83481 0.24044
31.85771 0.24046
31.88391 0.24034
31.90680 0.24036
31.93301 0.24023
31.95589 0.24026
31.98211 0.24013
32.00497 0.24016
32.03121 0.24003
32.05406 0.24006
32.08031 0.23993
32.10315 0.23996
32.12941 0.23983
32.15225 0.23986
32.17851 0.23973
32.20132 0.23976
32.22760 0.23963
32.25041 0.23965
32.27670 0.23953
32.29949 0.23955
32.32580 0.23943
32.34859 0.23945
32.37490 0.23933
32.39767 0.23935
32.42400 0.23922
32.44676 0.23925
32.47310 0.23912
32.49585 0.23915
32.52219 0.23902
32.54494 0.23905
32.57130 0.23892
32.59402 0.23895
32.62039 0.23882
32.64312 0.23885
32.66950 0.23872
32.69220 0.23875
32.71859 0.23862
32.74129 0.23865
32.76769 0.23852
32.79037 0.23854
32.81678 0.23842
32.83946 0.23844
32.86588 0.23832
32.88855 0.23834
32.91499 0.23822
32.93764 0.23824
32.96408 0.23812
32.98672 0.23814
33.01318 0.23801
33.03581 0.23804
33.06228 0.23791
33.08490 0.23794
33.11138 0.23781
33.13399 0.23784
33.16048 0.23771
33.18307 0.23774
33.20958 0.23761
33.23215 0.23764
33.25867 0.23751
33.28125 0.23754
33.30777 0.23741
33.33033 0.23743
33.35686 0.23731
33.37942 0.23733
33.40597 0.23721
33.42851 0.23723
33.45507 0.23711
33.47760 0.23713
33.50417 0.23701
33.52668 0.23703
33.55327 0.23691
33.57577 0.23693
33.60237 0.23680
33.62486 0.23683
33.65147 0.23670
33.67395 0.23673
33.70056 0.23660
33.72303 0.23663
33.74966 0.23650
33.77212 0.23653
33.79876 0.23640
33.82121 0.23642
33.84786 0.23630
33.87030 0.23632
33.89696 0.23620
33.91939 0.23622
33.94606 0.23610
33.96847 0.23612
33.99515 0.23600
34.01756 0.23602
34.04426 0.23590
34.06665 0.23592
34.09336 0.23580
34.11574 0.23582
34.14245 0.23569
34.16482 0.23572
34.19155 0.23559
34.21391 0.23562
34.24065 0.23549
34.26299 0.23552
34.28975 0.23539
34.31208 0.23541
34.33885 0.23529
34.36117 0.23532
34.38794 0.23519
34.41025 0.23521
34.43704 0.23509
34.45934 0.23511
34.48614 0.23499
34.50843 0.23501
34.53524 0.23489
34.55752 0.23491
34.58434 0.23479
34.60661 0.23481
34.63344 0.23468
34.65569 0.23471
34.68253 0.23458
34.70478 0.23461
34.73163 0.23448
34.75387 0.23451
34.78074 0.23438
34.80295 0.23441
34.82983 0.23428
34.85204 0.23431
34.87893 0.23418
34.90113 0.23421
34.92803 0.23408
34.95022 0.23411
34.97714 0.23398
34.99931 0.23400
35.02624 0.23388
35.04839 0.23390
35.07532 0.23378
35.09748 0.23380
35.12443 0.23368
35.14657 0.23370
35.17353 0.23358
35.19565 0.23360
35.22262 0.23347
35.24474 0.23350
35.27172 0.23337
35.29384 0.23340
35.32083 0.23327
35.34292 0.23330
35.36992 0.23317
35.39200 0.23320
35.41902 0.23307
35.44110 0.23310
35.46813 0.23297
35.49017 0.23299
35.51722 0.23287
35.53926 0.23289
35.56632 0.23277
35.58836 0.23279
35.61542 0.23267
35.63745 0.23269
35.66452 0.23257
35.68653 0.23259
35.71362 0.23247
35.73562 0.23249
35.76272 0.23237
35.78470 0.23239
35.81181 0.23226
35.83379 0.23229
35.86092 0.23216
35.88288 0.23219
35.91002 0.23206
35.93196 0.23208
35.95911 0.23196
35.98106 0.23199
36.00821 0.23186
36.03015 0.23189
36.05732 0.23176
36.07923 0.23178
36.10642 0.23166
36.12832 0.23168
36.15551 0.23156
36.17740 0.23158
36.20461 0.23146
36.22649 0.23148
36.25371 0.23136
36.27558 0.23138
36.30281 0.23126
36.32467 0.23128
36.35191 0.23115
36.37375 0.23118
36.40101 0.23105
36.42284 0.23108
36.45011 0.23095
36.47193 0.23098
36.49921 0.23085
36.52101 0.23088
36.54830 0.23075
36.57010 0.23077
36.59740 0.23065
36.61919 0.23067
36.64650 0.23055
36.66827 0.23057
36.69560 0.23045
36.71737 0.23047
36.74471 0.23035
36.76646 0.23037
36.79381 0.23025
36.81554 0.23027
36.84290 0.23014
36.86462 0.23017
36.89200 0.23004
36.91371 0.23007
36.94110 0.22994
36.96280 0.22997
36.99020 0.22984
37.01188 0.22987
37.03930 0.22974
37.06098 0.22976
37.08840 0.22964
37.11007 0.22966
37.13750 0.22954
37.15916 0.22956
37.18660 0.22944
37.20824 0.22946
37.23570 0.22934
37.25732 0.22936
37.28479 0.22924
37.30641 0.22926
37.33390 0.22914
37.35551 0.22916
37.38300 0.22904
37.40458 0.22906
37.43209 0.22893
37.45368 0.22896
37.48119 0.22883
37.50276 0.22886
37.53029 0.22873
37.55185 0.22876
37.57939 0.22863
37.60094 0.22866
37.62849 0.22853
37.65003 0.22856
37.67759 0.22843
37.69911 0.22845
37.72669 0.22833
37.74820 0.22835
37.77579 0.22823
37.79728 0.22825
37.82489 0.22813
37.84638 0.22815
37.87400 0.22803
37.89546 0.22805
37.92309 0.22793
37.94455 0.22795
37.97219 0.22782
37.99364 0.22785
38.02129 0.22772
38.04272 0.22775
38.07039 0.22762
38.09181 0.22765
38.11949 0.22752
38.14090 0.22754
38.16859 0.22742
38.18998 0.22745
38.21769 0.22732
38.23907 0.22734
38.26678 0.22722
38.28816 0.22724
38.31588 0.22712
38.33725 0.22714
38.36499 0.22702
38.38634 0.22704
38.41409 0.22692
38.43543 0.22694
38.46319 0.22682
38.48451 0.22684
38.51229 0.22672
38.53360 0.22674
38.56139 0.22661
38.58268 0.22664
38.61048 0.22651
38.63177 0.22654
38.65958 0.22641
38.68086 0.22644
38.70869 0.22631
38.72995 0.22633
38.75779 0.22621
38.77903 0.22623
38.80688 0.22611
38.82813 0.22613
38.85599 0.22601
38.87721 0.22603
38.90508 0.22591
38.92630 0.22593
38.95419 0.22581
38.97539 0.22583
39.00329 0.22571
39.02447 0.22573
39.05239 0.22561
39.07356 0.22563
39.10148 0.22550
39.12265 0.22553
39.15059 0.22540
39.17173 0.22543
39.19968 0.22530
39.22082 0.22533
39.24878 0.22520
39.26991 0.22522
39.29788 0.22510
39.31900 0.22512
39.34699 0.22500
39.36808 0.22502
39.39608 0.22490
39.41717 0.22492
39.44518 0.22480
39.46626 0.22482
39.49429 0.22470
39.51534 0.22472
39.54338 0.22460
39.56444 0.22462
39.59249 0.22449
39.61352 0.22452
39.64158 0.22440
39.66261 0.22442
39.69068 0.22430
39.71169 0.22432
39.73978 0.22419
39.76078 0.22422
39.78888 0.22409
39.80987 0.22411
39.83798 0.22399
39.85896 0.22401
39.88709 0.22389
39.90804 0.22391
39.93618 0.22379
39.95713 0.22381
39.98528 0.22369
40.00622 0.22371
40.03439 0.22359
40.05531 0.22361
40.08348 0.22349
40.10440 0.22351
40.13259 0.22339
40.15349 0.22341
40.18169 0.22329
40.20257 0.22331
40.23079 0.22318
40.25166 0.22321
40.27989 0.22308
40.30074 0.22311
40.32898 0.22298
40.34983 0.22301
40.37808 0.22288
40.39892 0.22290
40.42719 0.22278
40.44800 0.22280
40.47628 0.22268
40.49709 0.22270
40.52538 0.22258
40.54617 0.22260
40.57448 0.22248
40.59527 0.22250
40.62358 0.22238
40.64436 0.22240
40.67269 0.22228
40.69344 0.22230
40.72178 0.22217
40.74253 0.22220
40.77089 0.22207
40.79161 0.22210
40.81998 0.22197
40.84070 0.22200
40.86909 0.22187
40.88979 0.22189
40.91818 0.22177
40.93887 0.22179
40.96728 0.22167
40.98797 0.22169
41.01639 0.22157
41.03705 0.22159
41.06549 0.22147
41.08614 0.22149
41.11459 0.22137
41.13523 0.22139
41.16369 0.22127
41.18432 0.22129
41.21279 0.22117
41.23341 0.22119
41.26189 0.22107
41.28250 0.22109
41.31099 0.22097
41.33158 0.22099
41.36009 0.22086
41.38066 0.22089
41.40919 0.22076
41.42975 0.22078
41.45829 0.22066
41.47884 0.22069
41.50739 0.22056
41.52793 0.22058
41.55649 0.22046
41.57701 0.22048
41.60558 0.22036
41.62610 0.22038
41.65469 0.22026
41.67519 0.22028
41.70380 0.22016
41.72428 0.22018
41.75289 0.22006
41.77337 0.22008
41.80200 0.21996
41.82245 0.21998
41.85109 0.21985
41.87153 0.21988
41.90019 0.21975
41.92063 0.21978
41.94930 0.21965
41.96972 0.21968
41.99840 0.21955
42.01881 0.21957
42.04750 0.21945
42.06788 0.21947
42.09659 0.21935
42.11698 0.21937
42.14570 0.21925
42.16606 0.21927
42.19480 0.21915
42.21515 0.21917
42.24390 0.21905
42.26423 0.21907
42.29299 0.21895
42.31332 0.21897
42.34209 0.21885
42.36242 0.21887
42.39121 0.21874
42.41150 0.21877
42.44030 0.21864
42.46059 0.21867
42.48940 0.21854
42.50968 0.21857
42.53850 0.21844
42.55876 0.21846
42.58760 0.21834
42.60785 0.21836
42.63670 0.21824
42.65694 0.21826
42.68581 0.21814
42.70602 0.21816
42.73490 0.21804
42.75511 0.21806
42.78400 0.21794
42.80419 0.21796
42.83310 0.21784
42.85328 0.21786
42.88221 0.21774
42.90238 0.21776
42.93132 0.21764
42.95146 0.21766
42.98041 0.21753
43.00055 0.21756
43.02951 0.21743
43.04964 0.21745
43.07861 0.21733
43.09872 0.21735
43.12771 0.21723
43.14781 0.21725
43.17681 0.21713
43.19690 0.21715
43.22591 0.21703
43.24599 0.21705
43.27502 0.21693
43.29507 0.21695
43.32412 0.21683
43.34416 0.21685
43.37322 0.21673
43.39325 0.21675
43.42232 0.21663
43.44233 0.21665
43.47141 0.21653
43.49143 0.21655
43.52052 0.21642
43.54051 0.21645
43.56962 0.21632
43.58960 0.21635
43.61872 0.21622
43.63869 0.21624
43.66782 0.21612
43.68777 0.21615
43.71692 0.21602
43.73686 0.21604
43.76602 0.21592
43.78595 0.21594
43.81513 0.21582
43.83504 0.21584
43.86423 0.21572
43.88412 0.21574
43.91333 0.21562
43.93321 0.21564
43.96243 0.21552
43.98230 0.21554
44.01153 0.21542
44.03139 0.21544
44.06063 0.21532
44.08048 0.21534
44.10974 0.21521
44.12956 0.21523
44.15884 0.21511
44.17864 0.21514
44.20793 0.21501
44.22773 0.21503
44.25704 0.21491
44.27682 0.21493
44.30614 0.21481
44.32591 0.21483
44.35524 0.21471
44.37499 0.21473
44.40434 0.21461
44.42408 0.21463
44.45344 0.21451
44.47317 0.21453
44.50254 0.21441
44.52225 0.21443
44.55164 0.21431
44.57134 0.21433
44.60074 0.21421
44.62044 0.21423
44.64985 0.21411
44.66952 0.21413
44.69894 0.21401
44.71861 0.21403
44.74805 0.21390
44.76770 0.21392
44.79715 0.21380
44.81678 0.21382
44.84625 0.21370
44.86587 0.21372
44.89535 0.21360
44.91496 0.21362
44.94446 0.21350
44.96405 0.21352
44.99356 0.21340
45.01313 0.21342
45.04265 0.21330
45.06222 0.21332
45.09176 0.21320
45.11131 0.21322
45.14086 0.21309
45.16039 0.21312
45.18996 0.21299
45.20948 0.21302
45.23906 0.21289
45.25857 0.21292
45.28816 0.21279
45.30765 0.21281
45.33726 0.21269
45.35675 0.21271
45.38637 0.21259
45.40583 0.21261
45.43546 0.21249
45.45491 0.21251
45.48456 0.21239
45.50400 0.21241
45.53367 0.21229
45.55309 0.21231
45.58277 0.21219
45.60219 0.21221
45.63188 0.21209
45.65127 0.21211
45.68097 0.21199
45.70036 0.21201
45.73008 0.21188
45.74944 0.21191
45.77918 0.21178
45.79853 0.21181
45.82828 0.21168
45.84761 0.21170
45.87737 0.21158
45.89671 0.21160
45.92648 0.21148
45.94579 0.21150
45.97558 0.21138
45.99488 0.21140
46.02469 0.21128
46.04397 0.21130
46.07378 0.21118
46.09305 0.21120
46.12288 0.21108
46.14215 0.21110
46.17200 0.21098
46.19123 0.21100
46.22109 0.21088
46.24032 0.21090
46.27020 0.21077
46.28940 0.21080
46.31929 0.21068
46.33849 0.21070
46.36840 0.21057
46.38759 0.21059
46.41751 0.21047
46.43667 0.21049
46.46660 0.21037
46.48575 0.21039
46.51569 0.21027
46.53483 0.21029
46.56479 0.21017
46.58393 0.21019
46.61390 0.21007
46.63302 0.21009
46.66301 0.20997
46.68211 0.20999
46.71211 0.20987
46.73118 0.20989
46.76121 0.20977
46.78027 0.20979
46.81031 0.20967
46.82937 0.20969
46.85942 0.20956
46.87845 0.20959
46.90851 0.20946
46.92754 0.20948
46.95762 0.20936
46.97663 0.20938
47.00673 0.20926
47.02572 0.20928
47.05582 0.20916
47.07481 0.20918
47.10493 0.20906
47.12389 0.20908
47.15403 0.20896
47.17297 0.20898
47.20312 0.20886
47.22207 0.20888
47.25223 0.20876
47.27115 0.20878
47.30133 0.20866
47.32024 0.20868
47.35043 0.20856
47.36933 0.20858
47.39954 0.20845
47.41842 0.20848
47.44864 0.20835
47.46751 0.20838
47.49775 0.20825
47.51659 0.20828
47.54685 0.20815
47.56568 0.20817
47.59595 0.20805
47.61476 0.20807
47.64505 0.20795
47.66384 0.20797
47.69414 0.20785
47.71293 0.20787
47.74325 0.20775
47.76202 0.20777
47.79235 0.20765
47.81111 0.20767
47.84145 0.20755
47.86020 0.20757
47.89055 0.20745
47.90929 0.20747
47.93966 0.20735
47.95837 0.20737
47.98876 0.20724
48.00746 0.20727
48.03787 0.20714
48.05655 0.20716
48.08696 0.20704
48.10564 0.20706
48.13607 0.20694
48.15472 0.20696
48.18517 0.20684
48.20381 0.20686
48.23427 0.20674
48.25290 0.20676
48.28337 0.20664
48.30199 0.20666
48.33248 0.20654
48.35108 0.20656
48.38158 0.20644
48.40016 0.20646
48.43068 0.20634
48.44924 0.20636
48.47978 0.20624
48.49834 0.20626
48.52889 0.20614
48.54742 0.20616
48.57799 0.20603
48.59651 0.20605
48.62709 0.20593
48.64560 0.20595
48.67619 0.20583
48.69469 0.20585
48.72530 0.20573
48.74377 0.20575
48.77440 0.20563
48.79286 0.20565
48.82350 0.20553
48.84195 0.20555
48.87261 0.20543
48.89103 0.20545
48.92170 0.20533
48.94013 0.20535
48.97081 0.20523
48.98921 0.20525
49.01991 0.20513
49.03829 0.20515
49.06901 0.20503
49.08738 0.20505
49.11811 0.20492
49.13647 0.20494
49.16721 0.20482
49.18556 0.20484
49.21632 0.20472
49.23464 0.20474
49.26542 0.20462
49.28373 0.20464
49.31452 0.20452
49.33282 0.20454
49.36363 0.20442
49.38190 0.20444
49.41272 0.20432
49.43100 0.20434
49.46184 0.20422
49.48008 0.20424
49.51094 0.20412
49.52917 0.20414
49.56004 0.20402
49.57826 0.20404
49.60914 0.20392
49.62735 0.20394
49.65825 0.20382
49.67643 0.20384
49.70734 0.20371
49.72552 0.20374
49.75645 0.20361
49.77460 0.20363
49.80555 0.20351
49.82369 0.20353
49.85465 0.20341
49.87278 0.20343
49.90376 0.20331
49.92187 0.20333
49.95286 0.20321
49.97096 0.20323
50.00197 0.20311
50.02004 0.20313
50.05106 0.20301
50.06914 0.20303
50.10017 0.20291
50.11821 0.20293
50.14926 0.20281
50.16731 0.20283
50.19838 0.20271
50.21639 0.20273
50.24747 0.20260
50.26548 0.20262
50.29658 0.20250
50.31457 0.20252
50.34569 0.20240
50.36366 0.20242
50.39479 0.20230
50.41274 0.20232
50.44388 0.20220
50.46183 0.20222
50.49299 0.20210
50.51092 0.20212
50.54210 0.20200
50.56001 0.20202
50.59120 0.20190
50.60909 0.20192
50.64030 0.20180
50.65818 0.20182
50.68940 0.20170
50.70726 0.20172
50.73850 0.20160
50.75636 0.20162
50.78762 0.20149
50.80545 0.20151
50.83672 0.20139
50.85453 0.20141
50.88582 0.20129
50.90361 0.20131
50.93491 0.20119
50.95271 0.20121
50.98403 0.20109
51.00179 0.20111
51.03312 0.20099
51.05088 0.20101
51.08223 0.20089
51.09997 0.20091
51.13133 0.20079
51.14905 0.20081
51.18043 0.20069
51.19814 0.20071
51.22953 0.20059
51.24724 0.20061
51.27865 0.20049
51.29631 0.20050
51.32774 0.20038
51.34541 0.20040
51.37685 0.20028
51.39450 0.20030
51.42596 0.20018
51.44358 0.20020
51.47505 0.20008
51.49266 0.20010
51.52415 0.19998
51.54175 0.20000
51.57326 0.19988
51.59083 0.19990
51.62235 0.19978
51.63993 0.19980
51.67147 0.19968
51.68902 0.19970
51.72057 0.19958
51.73810 0.19960
51.76967 0.19948
51.78718 0.19950
51.81877 0.19938
51.83628 0.19940
51.86788 0.19928
51.88536 0.19929
51.91698 0.19917
51.93445 0.19919
51.96608 0.19907
51.98354 0.19909
52.01519 0.19897
52.03263 0.19899
52.06429 0.19887
52.08172 0.19889
52.11340 0.19877
52.13080 0.19879
52.16250 0.19867
52.17989 0.19869
52.21161 0.19857
52.22898 0.19859
52.26071 0.19847
52.27806 0.19849
52.30981 0.19837
52.32715 0.19839
52.35891 0.19827
52.37625 0.19829
52.40802 0.19816
52.42533 0.19818
52.45712 0.19807
52.47441 0.19808
52.50622 0.19796
52.52351 0.19798
52.55533 0.19786
52.57259 0.19788
52.60443 0.19776
52.62168 0.19778
52.65354 0.19766
52.67077 0.19768
52.70264 0.19756
52.71986 0.19758
52.75175 0.19746
52.76894 0.19748
52.80085 0.19736
52.81802 0.19738
52.84994 0.19726
52.86711 0.19728
52.89905 0.19716
52.91620 0.19717
52.94816 0.19706
52.96530 0.19708
52.99727 0.19695
53.01437 0.19697
53.04636 0.19685
53.06347 0.19687
53.09548 0.19675
53.11255 0.19677
53.14458 0.19665
53.16163 0.19667
53.19367 0.19655
53.21073 0.19657
53.24278 0.19645
53.25981 0.19647
53.29188 0.19635
53.30891 0.19637
53.34099 0.19625
53.35799 0.19627
53.39010 0.19615
53.40708 0.19617
53.43920 0.19605
53.45616 0.19607
53.48830 0.19595
53.50525 0.19596
53.53741 0.19584
53.55434 0.19586
53.58651 0.19574
53.60342 0.19576
53.63561 0.19564
53.65252 0.19566
53.68472 0.19554
53.70160 0.19556
53.73382 0.19544
53.75068 0.19546
53.78292 0.19534
53.79978 0.19536
53.83203 0.19524
53.84887 0.19526
53.88114 0.19514
53.89795 0.19516
53.93023 0.19504
53.94704 0.19506
53.97934 0.19494
53.99613 0.19496
54.02845 0.19484
54.04521 0.19485
54.07755 0.19474
54.09429 0.19475
54.12664 0.19464
54.14339 0.19465
54.17576 0.19453
54.19247 0.19455
54.22486 0.19443
54.24155 0.19445
54.27396 0.19433
54.29065 0.19435
54.32307 0.19423
54.33973 0.19425
54.37217 0.19413
54.38882 0.19415
54.42128 0.19403
54.43791 0.19405
54.47038 0.19393
54.48700 0.19395
54.51949 0.19383
54.53609 0.19385
54.56859 0.19373
54.58518 0.19374
54.61770 0.19363
54.63426 0.19364
54.66680 0.19353
54.68335 0.19354
54.71590 0.19342
54.73244 0.19344
54.76502 0.19332
54.78153 0.19334
54.81412 0.19322
54.83061 0.19324
54.86322 0.19312
54.87969 0.19314
54.91232 0.19302
54.92878 0.19304
54.96143 0.19292
54.97787 0.19294
55.01053 0.19282
55.02696 0.19284
55.05964 0.19272
55.07604 0.19273
55.10874 0.19262
55.12513 0.19263
55.15784 0.19251
55.17422 0.19253
55.20695 0.19241
55.22331 0.19243
55.25606 0.19231
55.27239 0.19233
55.30515 0.19221
55.32149 0.19223
55.35427 0.19211
55.37057 0.19213
55.40336 0.19201
55.41965 0.19203
55.45246 0.19191
55.46875 0.19193
55.50158 0.19181
55.51783 0.19183
55.55068 0.19171
55.56692 0.19173
55.59978 0.19161
55.61601 0.19163
55.64890 0.19151
55.66510 0.19152
55.69800 0.19141
55.71418 0.19142
55.74710 0.19131
55.76327 0.19132
55.79620 0.19120
55.81236 0.19122
55.84531 0.19110
55.86144 0.19112
55.89441 0.19100
55.91054 0.19102
55.94352 0.19090
55.95962 0.19092
55.99262 0.19080
56.00871 0.19082
56.04173 0.19070
56.05779 0.19072
56.09083 0.19060
56.10688 0.19062
56.13993 0.19050
56.15597 0.19051
56.18904 0.19040
56.20505 0.19042
56.23815 0.19030
56.25415 0.19032
56.28726 0.19019
56.30324 0.19021
56.33636 0.19009
56.35232 0.19011
56.38547 0.18999
56.40140 0.19001
56.43457 0.18989
56.45050 0.18991
56.48368 0.18979
56.49957 0.18981
56.53277 0.18969
56.54867 0.18971
56.58188 0.18959
56.59776 0.18961
56.63100 0.18949
56.64685 0.18951
56.68010 0.18939
56.69593 0.18941
56.72920 0.18929
56.74501 0.18930
56.77830 0.18919
56.79411 0.18921
56.82741 0.18909
56.84320 0.18910
56.87652 0.18898
56.89229 0.18900
56.92563 0.18888
56.94137 0.18890
56.97472 0.18878
56.99045 0.18880
57.02383 0.18868
57.03955 0.18870
57.07294 0.18858
57.08864 0.18860
57.12205 0.18848
57.13772 0.18850
57.17115 0.18838
57.18680 0.18840
57.22025 0.18828
57.23589 0.18830
57.26936 0.18818
57.28498 0.18820
57.31846 0.18808
57.33407 0.18809
57.36757 0.18798
57.38315 0.18799
57.41667 0.18788
57.43224 0.18789
57.46577 0.18777
57.48133 0.18779
57.51489 0.18767
57.53042 0.18769
57.56400 0.18757
57.57951 0.18759
57.61310 0.18747
57.62858 0.18749
57.66219 0.18737
57.67767 0.18739
57.71130 0.18727
57.72676 0.18729
57.76041 0.18717
57.77586 0.18719
57.80952 0.18707
57.82494 0.18709
57.85862 0.18697
57.87403 0.18698
57.90773 0.18687
57.92312 0.18688
57.95684 0.18677
57.97219 0.18678
58.00593 0.18667
58.02129 0.18668
58.05504 0.18657
58.07038 0.18658
58.10416 0.18646
58.11946 0.18648
58.15325 0.18636
58.16855 0.18638
58.20236 0.18626
58.21763 0.18628
58.25146 0.18616
58.26672 0.18618
58.30057 0.18606
58.31581 0.18608
58.34967 0.18596
58.36491 0.18597
58.39879 0.18586
58.41399 0.18587
58.44789 0.18576
58.46307 0.18577
58.49699 0.18566
58.51217 0.18567
58.54610 0.18556
58.56125 0.18557
58.59520 0.18545
58.61034 0.18547
58.64432 0.18535
58.65943 0.18537
58.69342 0.18525
58.70851 0.18527
58.74252 0.18515
58.75760 0.18517
58.79163 0.18505
58.80669 0.18507
58.84074 0.18495
58.85578 0.18497
58.88985 0.18485
58.90486 0.18486
58.93895 0.18475
58.95395 0.18477
58.98805 0.18465
59.00305 0.18466
59.03717 0.18455
59.05212 0.18456
59.08626 0.18445
59.10121 0.18446
59.13537 0.18435
59.15030 0.18436
59.18448 0.18424
59.19939 0.18426
59.23359 0.18414
59.24848 0.18416
59.28269 0.18404
59.29755 0.18406
59.33179 0.18394
59.34665 0.18396
59.38090 0.18384
59.39574 0.18386
59.43001 0.18374
59.44483 0.18376
59.47912 0.18364
59.49392 0.18366
59.52823 0.18354
59.54300 0.18355
59.57733 0.18344
59.59209 0.18345
59.62644 0.18334
59.64117 0.18335
59.67554 0.18324
59.69026 0.18325
59.72465 0.18313
59.73935 0.18315
59.77375 0.18303
59.78844 0.18305
59.82286 0.18293
59.83752 0.18295
59.87197 0.18283
59.88660 0.18285
59.92106 0.18273
59.93569 0.18275
59.97017 0.18263
59.98479 0.18265
60.01929 0.18253
60.03387 0.18254
60.06839 0.18243
60.08297 0.18244
60.11750 0.18233
60.13205 0.18234
60.16661 0.18223
60.18114 0.18224
60.21572 0.18213
60.23023 0.18214
60.26482 0.18202
60.27931 0.18204
60.31393 0.18192
60.32840 0.18194
60.36304 0.18182
60.37748 0.18184
60.41214 0.18172
60.42657 0.18174
60.46124 0.18162
60.47566 0.18164
60.51035 0.18152
60.52475 0.18153
60.55946 0.18142
60.57383 0.18143
60.60856 0.18132
60.62293 0.18133
60.65768 0.18122
60.67201 0.18123
60.70678 0.18112
60.72109 0.18113
60.75588 0.18101
60.77019 0.18103
60.80499 0.18092
60.81927 0.18093
60.85410 0.18081
60.86836 0.18083
60.90321 0.18071
60.91744 0.18073
60.95231 0.18061
60.96652 0.18063
61.00141 0.18051
61.01563 0.18053
61.05053 0.18041
61.06472 0.18043
61.09964 0.18031
61.11379 0.18032
61.14873 0.18021
61.16288 0.18023
61.19785 0.18011
61.21197 0.18012
61.24695 0.18001
61.26106 0.18002
61.29606 0.17991
61.31015 0.17992
61.34517 0.17980
61.35922 0.17982
61.39427 0.17970
61.40833 0.17972
61.44339 0.17960
61.45740 0.17962
61.49248 0.17950
61.50649 0.17952
61.54159 0.17940
61.55558 0.17942
61.59070 0.17930
61.60467 0.17932
61.63981 0.17920
61.65375 0.17922
61.68891 0.17910
61.70285 0.17911
61.73803 0.17900
61.75193 0.17901
61.78713 0.17890
61.80102 0.17891
61.83624 0.17880
61.85010 0.17881
61.88534 0.17870
61.89919 0.17871
61.93445 0.17859
61.94828 0.17861
61.98356 0.17849
61.99737 0.17851
62.03267 0.17839
62.04645 0.17841
62.08177 0.17829
62.09554 0.17831
62.13088 0.17819
62.14463 0.17821
62.17999 0.17809
62.19371 0.17810
62.22909 0.17799
62.24281 0.17801
62.27820 0.17789
62.29189 0.17790
62.32731 0.17779
62.34098 0.17780
62.37642 0.17769
62.39006 0.17770
62.42552 0.17758
62.43915 0.17760
62.47463 0.17748
62.48825 0.17750
62.52375 0.17738
62.53733 0.17740
62.57285 0.17728
62.58642 0.17730
62.62196 0.17718
62.63551 0.17720
62.67107 0.17708
62.68460 0.17710
62.72018 0.17698
62.73369 0.17699
62.76929 0.17688
62.78277 0.17689
62.81840 0.17678
62.83185 0.17679
62.86750 0.17668
62.88093 0.17669
62.91660 0.17658
62.93003 0.17659
62.96571 0.17648
62.97911 0.17649
63.01482 0.17638
63.02819 0.17639
63.06392 0.17628
63.07728 0.17629
63.11303 0.17617
63.12637 0.17619
63.16214 0.17607
63.17546 0.17609
63.21124 0.17597
63.22455 0.17599
63.26036 0.17587
63.27363 0.17589
63.30946 0.17577
63.32273 0.17578
63.35857 0.17567
63.37181 0.17568
63.40768 0.17557
63.42090 0.17558
63.45679 0.17547
63.46999 0.17548
63.50590 0.17537
63.51907 0.17538
63.55500 0.17527
63.56817 0.17528
63.60412 0.17517
63.61725 0.17518
63.65322 0.17506
63.66633 0.17508
63.70232 0.17496
63.71543 0.17498
63.75144 0.17486
63.76451 0.17488
63.80055 0.17476
63.81361 0.17478
63.84967 0.17466
63.86269 0.17467
63.89877 0.17456
63.91177 0.17457
63.94787 0.17446
63.96085 0.17447
63.99697 0.17436
64.00995 0.17437
64.04609 0.17426
64.05904 0.17427
64.09520 0.17415
64.10813 0.17417
64.14431 0.17405
64.15721 0.17407
64.19341 0.17395
64.20631 0.17397
64.24253 0.17385
64.25539 0.17387
64.29163 0.17375
64.30447 0.17377
64.34074 0.17365
64.35357 0.17367
64.38985 0.17355
64.40265 0.17357
64.43896 0.17345
64.45174 0.17347
64.48806 0.17335
64.50082 0.17336
64.53716 0.17325
64.54991 0.17326
64.58628 0.17315
64.59899 0.17316
64.63538 0.17305
64.64808 0.17306
64.68449 0.17295
64.69717 0.17296
64.73361 0.17285
64.74626 0.17286
64.78271 0.17274
64.79535 0.17276
64.83183 0.17264
64.84444 0.17266
64.88093 0.17254
64.89353 0.17256
64.93005 0.17244
64.94261 0.17246
64.97915 0.17234
64.99170 0.17235
65.02826 0.17224
65.04079 0.17225
65.07737 0.17214
65.08988 0.17215
65.12648 0.17204
65.13896 0.17205
65.17559 0.17194
65.18805 0.17195
65.22469 0.17184
65.23714 0.17185
65.27381 0.17173
65.28622 0.17175
65.32291 0.17163
65.33532 0.17165
65.37203 0.17153
65.38439 0.17155
65.42113 0.17143
65.43349 0.17145
65.47024 0.17133
65.48256 0.17134
65.51934 0.17123
65.53167 0.17124
65.56846 0.17113
65.58074 0.17115
65.61756 0.17103
65.62983 0.17104
65.66667 0.17093
65.67892 0.17094
65.71578 0.17083
65.72801 0.17084
65.76490 0.17073
65.77709 0.17074
65.81399 0.17063
65.82618 0.17064
65.86310 0.17052
65.87526 0.17054
65.91221 0.17042
65.92436 0.17044
65.96133 0.17032
65.97345 0.17034
66.01044 0.17022
66.02254 0.17024
66.05955 0.17012
66.07162 0.17013
66.10866 0.17002
66.12070 0.17003
66.15776 0.16992
66.16981 0.16993
66.20689 0.16982
66.21888 0.16983
66.25598 0.16972
66.26796 0.16973
66.30509 0.16962
66.31706 0.16963
66.35421 0.16952
66.36615 0.16953
66.40332 0.16942
66.41523 0.16943
66.45242 0.16931
66.46433 0.16933
66.50154 0.16921
66.51341 0.16923
66.55065 0.16911
66.56250 0.16913
66.59976 0.16901
66.61158 0.16902
66.64886 0.16891
66.66066 0.16892
66.69797 0.16881
66.70976 0.16882
66.74708 0.16871
66.75884 0.16872
66.79619 0.16861
66.80792 0.16862
66.84529 0.16851
66.85702 0.16852
66.89441 0.16841
66.90611 0.16842
66.94352 0.16831
66.95519 0.16832
66.99262 0.16820
67.00429 0.16822
67.04175 0.16810
67.05336 0.16812
67.09084 0.16800
67.10245 0.16801
67.13996 0.16790
67.15155 0.16792
67.18908 0.16780
67.20062 0.16781
67.23817 0.16770
67.24973 0.16771
67.28730 0.16760
67.29881 0.16761
67.33640 0.16750
67.34788 0.16751
67.38550 0.16740
67.39698 0.16741
67.43462 0.16730
67.44607 0.16731
67.48373 0.16720
67.49515 0.16721
67.53283 0.16709
67.54424 0.16711
67.58195 0.16699
67.59332 0.16701
67.63105 0.16689
67.64243 0.16691
67.68018 0.16679
67.69150 0.16681
67.72928 0.16669
67.74060 0.16670
67.77840 0.16659
67.78967 0.16660
67.82750 0.16649
67.83877 0.16650
67.87661 0.16639
67.88784 0.16640
67.92571 0.16629
67.93694 0.16630
67.97483 0.16619
67.98604 0.16620
68.02395 0.16609
68.03513 0.16610
68.07306 0.16598
68.08421 0.16600
68.12217 0.16588
68.13328 0.16590
68.17127 0.16578
68.18238 0.16580
68.22039 0.16568
68.23146 0.16570
68.26949 0.16558
68.28057 0.16559
68.31862 0.16548
68.32964 0.16549
68.36772 0.16538
68.37872 0.16539
68.41682 0.16528
68.42782 0.16529
68.46594 0.16518
68.47690 0.16519
68.51505 0.16508
68.52599 0.16509
68.56416 0.16498
68.57509 0.16499
68.61328 0.16487
68.62417 0.16489
68.66238 0.16478
68.67325 0.16479
68.71149 0.16468
68.72235 0.16469
68.76061 0.16457
68.77143 0.16458
68.80972 0.16447
68.82051 0.16449
68.85882 0.16437
68.86960 0.16438
68.90793 0.16427
68.91868 0.16428
68.95704 0.16417
68.96777 0.16418
69.00615 0.16407
69.01686 0.16408
69.05526 0.16397
69.06596 0.16398
69.10439 0.16387
69.11504 0.16388
69.15349 0.16377
69.16412 0.16378
69.20260 0.16367
69.21321 0.16368
69.25171 0.16357
69.26231 0.16358
69.30083 0.16346
69.31139 0.16348
69.34994 0.16336
69.36047 0.16338
69.39904 0.16326
69.40956 0.16327
69.44815 0.16316
69.45865 0.16317
69.49726 0.16306
69.50774 0.16307
69.54638 0.16296
69.55682 0.16297
69.59549 0.16286
69.60591 0.16287
69.64460 0.16276
69.65500 0.16277
69.69371 0.16266
69.70408 0.16267
69.74282 0.16255
69.75318 0.16257
69.79194 0.16245
69.80227 0.16247
69.84105 0.16235
69.85135 0.16236
69.89016 0.16225
69.90044 0.16227
69.93927 0.16215
69.94953 0.16216
69.98839 0.16205
69.99860 0.16206
70.03749 0.16195
70.04769 0.16196
70.08660 0.16185
70.09678 0.16186
70.13572 0.16175
70.14588 0.16176
70.18483 0.16165
70.19496 0.16166
70.23394 0.16155
70.24404 0.16156
70.28305 0.16145
70.29314 0.16146
70.33217 0.16135
70.34222 0.16136
70.38128 0.16124
70.39132 0.16126
70.43040 0.16114
70.44040 0.16115
70.47950 0.16104
70.48948 0.16105
70.52861 0.16094
70.53858 0.16095
70.57773 0.16084
70.58766 0.16085
70.62684 0.16074
70.63675 0.16075
70.67595 0.16064
70.68583 0.16065
70.72506 0.16054
70.73492 0.16055
70.77417 0.16044
70.78402 0.16045
70.82329 0.16034
70.83309 0.16035
70.87239 0.16023
70.88219 0.16025
70.92152 0.16013
70.93127 0.16014
70.97062 0.16003
70.98036 0.16004
71.01974 0.15993
71.02945 0.15994
71.06885 0.15983
71.07854 0.15984
71.11796 0.15973
71.12762 0.15974
71.16707 0.15963
71.17671 0.15964
71.21618 0.15953
71.22579 0.15954
71.26529 0.15943
71.27489 0.15944
71.31442 0.15933
71.32398 0.15934
71.36353 0.15923
71.37306 0.15924
71.41264 0.15913
71.42214 0.15914
71.46174 0.15903
71.47123 0.15904
71.51086 0.15892
71.52032 0.15894
71.55997 0.15882
71.56941 0.15883
71.60909 0.15872
71.61850 0.15873
71.65820 0.15862
71.66758 0.15863
71.70731 0.15852
71.71667 0.15853
71.75643 0.15842
71.76576 0.15843
71.80554 0.15832
71.81485 0.15833
71.85465 0.15822
71.86393 0.15823
71.90375 0.15812
71.91301 0.15813
71.95286 0.15802
71.96210 0.15803
72.00198 0.15792
72.01119 0.15793
72.05110 0.15781
72.06027 0.15782
72.10020 0.15771
72.10937 0.15772
72.14932 0.15761
72.15845 0.15762
72.19843 0.15751
72.20754 0.15752
72.24754 0.15741
72.25663 0.15742
72.29666 0.15731
72.30573 0.15732
72.34578 0.15721
72.35480 0.15722
72.39488 0.15711
72.40390 0.15712
72.44401 0.15701
72.45299 0.15702
72.49312 0.15691
72.50207 0.15692
72.54223 0.15681
72.55115 0.15682
72.59134 0.15671
72.60025 0.15672
72.64046 0.15660
72.64934 0.15661
72.68958 0.15650
72.69842 0.15651
72.73869 0.15640
72.74750 0.15641
72.78779 0.15630
72.79659 0.15631
72.83690 0.15620
72.84568 0.15621
72.88602 0.15610
72.89476 0.15611
72.93513 0.15600
72.94384 0.15601
72.98424 0.15590
72.99293 0.15591
73.03335 0.15580
73.04203 0.15581
73.08248 0.15570
73.09113 0.15571
73.13160 0.15560
73.14021 0.15561
73.18071 0.15549
73.18928 0.15550
73.22980 0.15539
73.23837 0.15540
73.27892 0.15529
73.28747 0.15530
73.32805 0.15519
73.33656 0.15520
73.37716 0.15509
73.38564 0.15510
73.42627 0.15499
73.43474 0.15500
73.47539 0.15489
73.48382 0.15490
73.52451 0.15479
73.53291 0.15480
73.57362 0.15469
73.58198 0.15470
73.62272 0.15459
73.63107 0.15460
73.67183 0.15449
73.68016 0.15449
73.72094 0.15438
73.72926 0.15439
73.77007 0.15428
73.77835 0.15429
73.81919 0.15418
73.82743 0.15419
73.86830 0.15408
73.87651 0.15409
73.91740 0.15398
73.92561 0.15399
73.96653 0.15388
73.97468 0.15389
74.01563 0.15378
74.02378 0.15379
74.06476 0.15368
74.07286 0.15369
74.11387 0.15358
74.12196 0.15359
74.16299 0.15348
74.17104 0.15348
74.21210 0.15338
74.22012 0.15338
74.26121 0.15328
74.26922 0.15329
74.31033 0.15318
74.31830 0.15318
74.35944 0.15307
74.36738 0.15308
74.40855 0.15297
74.41648 0.15298
74.45767 0.15287
74.46555 0.15288
74.50677 0.15277
74.51465 0.15278
74.55590 0.15267
74.56373 0.15268
74.60500 0.15257
74.61283 0.15258
74.65413 0.15247
74.66191 0.15248
74.70324 0.15237
74.71099 0.15238
74.75235 0.15227
74.76008 0.15228
74.80147 0.15217
74.80918 0.15217
74.85059 0.15207
74.85826 0.15207
74.89969 0.15197
74.90735 0.15197
74.94881 0.15186
74.95643 0.15187
74.99793 0.15176
75.00553 0.15177
75.04705 0.15166
75.05461 0.15167
75.09616 0.15156
75.10369 0.15157
75.14527 0.15146
75.15278 0.15147
75.19439 0.15136
75.20187 0.15137
75.24350 0.15126
75.25096 0.15127
75.29262 0.15116
75.30004 0.15117
75.34173 0.15106
75.34914 0.15106
75.39085 0.15096
75.39822 0.15096
75.43997 0.15085
75.44731 0.15086
75.48908 0.15075
75.49640 0.15076
75.53820 0.15065
75.54549 0.15066
75.58732 0.15055
75.59458 0.15056
75.63644 0.15045
75.64366 0.15046
75.68555 0.15035
75.69275 0.15036
75.73466 0.15025
75.74184 0.15026
75.78378 0.15015
75.79092 0.15016
75.83289 0.15005
75.84000 0.15005
75.88200 0.14995
75.88910 0.14996
75.93112 0.14985
75.93819 0.14985
75.98024 0.14975
75.98726 0.14975
76.02935 0.14964
76.03637 0.14965
76.07848 0.14954
76.08545 0.14955
76.12759 0.14944
76.13454 0.14945
76.17671 0.14934
76.18362 0.14935
76.22582 0.14924
76.23271 0.14925
76.27493 0.14914
76.28179 0.14915
76.32404 0.14904
76.33089 0.14905
76.37317 0.14894
76.37997 0.14895
76.42228 0.14884
76.42905 0.14885
76.47139 0.14874
76.47814 0.14875
76.52051 0.14864
76.52723 0.14864
76.56962 0.14854
76.57632 0.14854
76.61875 0.14844
76.62541 0.14844
76.66786 0.14833
76.67450 0.14834
76.71698 0.14823
76.72358 0.14824
76.76609 0.14813
76.77266 0.14814
76.81520 0.14803
76.82175 0.14804
76.86432 0.14793
76.87085 0.14794
76.91345 0.14783
76.91993 0.14783
76.96256 0.14773
76.96902 0.14774
77.01168 0.14763
77.01811 0.14764
77.06080 0.14753
77.06720 0.14753
77.10992 0.14742
77.11629 0.14743
77.15904 0.14732
77.16538 0.14733
77.20815 0.14722
77.21446 0.14723
77.25726 0.14712
77.26355 0.14713
77.30638 0.14702
77.31264 0.14703
77.35550 0.14692
77.36172 0.14693
77.40462 0.14682
77.41081 0.14683
77.45373 0.14672
77.45990 0.14673
77.50285 0.14662
77.50898 0.14662
77.55196 0.14652
77.55808 0.14652
77.60109 0.14642
77.60715 0.14642
77.65019 0.14632
77.65624 0.14632
77.69931 0.14622
77.70532 0.14622
77.74842 0.14611
77.75442 0.14612
77.79755 0.14601
77.80351 0.14602
77.84667 0.14591
77.85260 0.14592
77.89579 0.14581
77.90168 0.14582
77.94490 0.14571
77.95077 0.14572
77.99402 0.14561
77.99985 0.14562
78.04313 0.14551
78.04895 0.14552
78.09226 0.14541
78.09804 0.14541
78.14137 0.14531
78.14711 0.14531
78.19048 0.14520
78.19621 0.14521
78.23961 0.14511
78.24529 0.14511
78.28871 0.14501
78.29437 0.14501
78.33783 0.14490
78.34346 0.14491
78.38695 0.14480
78.39256 0.14481
78.43608 0.14470
78.44164 0.14471
78.48519 0.14460
78.49072 0.14461
78.53430 0.14450
78.53982 0.14451
78.58343 0.14440
78.58889 0.14441
78.63253 0.14430
78.63799 0.14430
78.68166 0.14420
78.68708 0.14420
78.73078 0.14410
78.73617 0.14410
78.77990 0.14400
78.78526 0.14400
78.82902 0.14390
78.83434 0.14390
78.87813 0.14379
78.88342 0.14380
78.92725 0.14369
78.93253 0.14370
78.97638 0.14359
78.98161 0.14360
79.02549 0.14349
79.03068 0.14350
79.07460 0.14339
79.07977 0.14340
79.12372 0.14329
79.12886 0.14329
79.17284 0.14319
79.17795 0.14320
79.22196 0.14309
79.22704 0.14309
79.27108 0.14299
79.27613 0.14299
79.32020 0.14289
79.32521 0.14289
79.36932 0.14279
79.37431 0.14279
79.41844 0.14268
79.42339 0.14269
79.46755 0.14258
79.47248 0.14259
79.51667 0.14248
79.52156 0.14249
79.56579 0.14238
79.57064 0.14239
79.61490 0.14228
79.61975 0.14229
79.66404 0.14218
79.66883 0.14219
79.71315 0.14208
79.71792 0.14208
79.76228 0.14198
79.76700 0.14198
79.81138 0.14188
79.81609 0.14188
79.86051 0.14178
79.86517 0.14178
79.90961 0.14168
79.91426 0.14168
79.95874 0.14158
79.96335 0.14158
80.00786 0.14147
80.01245 0.14148
80.05699 0.14137
80.06153 0.14138
80.10611 0.14127
80.11061 0.14128
80.15522 0.14117
80.15970 0.14118
80.20434 0.14107
80.20879 0.14107
80.25346 0.14097
80.25788 0.14098
80.30258 0.14087
80.30696 0.14088
80.35170 0.14077
80.35605 0.14077
80.40082 0.14067
80.40513 0.14067
80.44993 0.14057
80.45423 0.14057
80.49906 0.14046
80.50331 0.14047
80.54817 0.14036
80.55241 0.14037
80.59731 0.14026
80.60148 0.14027
80.64641 0.14016
80.65057 0.14017
80.69553 0.14006
80.69966 0.14007
80.74466 0.13996
80.74875 0.13996
80.79378 0.13986
80.79783 0.13987
80.84289 0.13976
80.84692 0.13977
80.89201 0.13966
80.89601 0.13966
80.94113 0.13956
80.94509 0.13956
80.99025 0.13946
80.99418 0.13946
81.03937 0.13936
81.04326 0.13936
81.08849 0.13926
81.09237 0.13926
81.13763 0.13915
81.14144 0.13916
81.18673 0.13905
81.19054 0.13906
81.23586 0.13895
81.23962 0.13896
81.28497 0.13885
81.28872 0.13886
81.33410 0.13875
81.33779 0.13875
81.38321 0.13865
81.38688 0.13866
81.43233 0.13855
81.43596 0.13855
81.48145 0.13845
81.48506 0.13845
81.53057 0.13835
81.53414 0.13835
81.57969 0.13825
81.58323 0.13825
81.62882 0.13815
81.63232 0.13815
81.67794 0.13804
81.68141 0.13805
81.72706 0.13794
81.73050 0.13795
81.77619 0.13784
81.77958 0.13785
81.82529 0.13774
81.82866 0.13775
81.87441 0.13764
81.87776 0.13764
81.92355 0.13754
81.92685 0.13754
81.97267 0.13744
81.97593 0.13744
82.02179 0.13734
82.02503 0.13734
82.07091 0.13724
82.07411 0.13724
82.12003 0.13714
82.12319 0.13714
82.16914 0.13704
82.17228 0.13704
82.21827 0.13694
82.22136 0.13694
82.26738 0.13684
82.27045 0.13684
82.31650 0.13673
82.31954 0.13674
82.36563 0.13663
82.36863 0.13664
82.41475 0.13653
82.41772 0.13653
82.46387 0.13643
82.46681 0.13644
82.51300 0.13633
82.51591 0.13633
82.56213 0.13623
82.56497 0.13623
82.61123 0.13613
82.61407 0.13613
82.66037 0.13603
82.66315 0.13603
82.70948 0.13593
82.71224 0.13593
82.75860 0.13583
82.76133 0.13583
82.80773 0.13572
82.81041 0.13573
82.85684 0.13562
82.85951 0.13563
82.90597 0.13552
82.90860 0.13553
82.95510 0.13542
82.95768 0.13543
83.00422 0.13532
83.00678 0.13533
83.05335 0.13522
83.05585 0.13522
83.10246 0.13512
83.10495 0.13512
83.15159 0.13502
83.15404 0.13502
83.20072 0.13492
83.20311 0.13492
83.24982 0.13482
83.25221 0.13482
83.29895 0.13472
83.30130 0.13472
83.34808 0.13462
83.35038 0.13462
83.39720 0.13452
83.39947 0.13452
83.44632 0.13441
83.44856 0.13442
83.49544 0.13431
83.49765 0.13432
83.54457 0.13421
83.54672 0.13421
83.59368 0.13411
83.59581 0.13411
83.64280 0.13401
83.64491 0.13401
83.69194 0.13391
83.69399 0.13391
83.74105 0.13381
83.74308 0.13381
83.79018 0.13371
83.79215 0.13371
83.83929 0.13361
83.84126 0.13361
83.88843 0.13351
83.89034 0.13351
83.93755 0.13341
83.93944 0.13341
83.98668 0.13331
83.98851 0.13331
84.03579 0.13320
84.03760 0.13321
84.08491 0.13310
84.08669 0.13310
84.13404 0.13300
84.13578 0.13300
84.18316 0.13290
84.18487 0.13290
84.23229 0.13280
84.23396 0.13280
84.28142 0.13270
84.28304 0.13270
84.33053 0.13260
84.33212 0.13260
84.37965 0.13250
84.38123 0.13250
84.42879 0.13240
84.43030 0.13240
84.47790 0.13230
84.47939 0.13230
84.52703 0.13219
84.52849 0.13220
84.57616 0.13209
84.57757 0.13209
84.62528 0.13199
84.62665 0.13200
84.67440 0.13189
84.67573 0.13189
84.72352 0.13179
84.72483 0.13179
84.77265 0.13169
84.77392 0.13169
84.82178 0.13159
84.82300 0.13159
84.87089 0.13149
84.87208 0.13149
84.92001 0.13139
84.92117 0.13139
84.96913 0.13129
84.97027 0.13129
85.01828 0.13119
85.01935 0.13119
85.06739 0.13109
85.06845 0.13109
85.11652 0.13098
85.11753 0.13099
85.16565 0.13088
85.16661 0.13089
85.21476 0.13078
85.21571 0.13078
85.26390 0.13068
85.26479 0.13068
85.31301 0.13058
85.31388 0.13058
85.36214 0.13048
85.36298 0.13048
85.41128 0.13038
85.41204 0.13038
85.46038 0.13028
85.46113 0.13028
85.50950 0.13018
85.51022 0.13018
85.55863 0.13008
85.55932 0.13008
85.60777 0.12998
85.60840 0.12998
85.65689 0.12988
85.65749 0.12988
85.70601 0.12977
85.70658 0.12978
85.75514 0.12967
85.75566 0.12967
85.80426 0.12957
85.80475 0.12957
85.85339 0.12947
85.85384 0.12947
85.90251 0.12937
85.90294 0.12937
85.95165 0.12927
85.95201 0.12927
86.00077 0.12917
86.00111 0.12917
86.04990 0.12907
86.05018 0.12907
86.09901 0.12897
86.09927 0.12897
86.14814 0.12887
86.14837 0.12887
86.19727 0.12877
86.19745 0.12877
86.24639 0.12866
86.24654 0.12867
86.29553 0.12857
86.29564 0.12857
86.34466 0.12846
86.34471 0.12846
86.39377 0.12836
86.39380 0.12836
86.44289 0.12826
86.49197 0.12816
86.54106 0.12806
86.59015 0.12796
86.63925 0.12786
86.68832 0.12776
86.73741 0.12766
86.78649 0.12755
86.83559 0.12746
86.88466 0.12735
86.93377 0.12725
86.98284 0.12715
87.03194 0.12705
87.08101 0.12695
87.13010 0.12685
87.17920 0.12675
87.22829 0.12665
87.27736 0.12655
87.32646 0.12645
87.37554 0.12635
87.42462 0.12624
87.47373 0.12614
87.52281 0.12604
87.57190 0.12594
87.62099 0.12584
87.67008 0.12574
87.71917 0.12564
87.76824 0.12554
87.81733 0.12544
87.86642 0.12533
87.91550 0.12523
87.96459 0.12513
88.01369 0.12503
88.06276 0.12493
88.11186 0.12483
88.16094 0.12473
88.21002 0.12463
88.25912 0.12453
88.30819 0.12443
88.35730 0.12433
88.40638 0.12422
88.45546 0.12412
88.50457 0.12402
88.55363 0.12392
88.60273 0.12382
88.65182 0.12372
88.70091 0.12362
88.74999 0.12352
88.79908 0.12342
88.84816 0.12332
88.89725 0.12322
88.94634 0.12311
88.99542 0.12301
89.04452 0.12291
89.09360 0.12281
89.14269 0.12271
89.19178 0.12261
89.24087 0.12251
89.28996 0.12241
89.33904 0.12231
89.38812 0.12221
89.43720 0.12211
89.48632 0.12200
89.53539 0.12190
89.58447 0.12180
89.63357 0.12170
89.68264 0.12160
89.73174 0.12150
89.78082 0.12140
89.82991 0.12130
89.87900 0.12120
89.92810 0.12110
89.97717 0.12100
90.02626 0.12090
90.07536 0.12080
90.12444 0.12069
90.17353 0.12060
90.22262 0.12049
90.27170 0.12039
90.32079 0.12029
90.36986 0.12019
90.41897 0.12009
90.46805 0.11999
90.51713 0.11989
90.56622 0.11979
90.61531 0.11969
90.66441 0.11958
90.71348 0.11948
90.76257 0.11938
90.81167 0.11928
90.86075 0.11918
90.90984 0.11908
90.95893 0.11898
91.00801 0.11888
91.05711 0.11878
91.10619 0.11868
91.15527 0.11858
91.20437 0.11848
91.25345 0.11837
91.30254 0.11827
91.35161 0.11817
91.40072 0.11807
91.44980 0.11797
91.49890 0.11787
91.54798 0.11777
91.59706 0.11767
91.64615 0.11757
91.69525 0.11747
91.74433 0.11736
91.79340 0.11726
91.84250 0.11716
91.89159 0.11706
91.94068 0.11696
91.98975 0.11686
92.03886 0.11676
92.08794 0.11666
92.13702 0.11656
92.18610 0.11646
92.23520 0.11636
92.28430 0.11625
92.33336 0.11616
92.38245 0.11605
92.43155 0.11595
92.48063 0.11585
92.52971 0.11575
92.57880 0.11565
92.62789 0.11555
92.67698 0.11545
92.72608 0.11535
92.77516 0.11525
92.82426 0.11514
92.87333 0.11504
92.92241 0.11494
92.97150 0.11484
93.02059 0.11474
93.06968 0.11464
93.11877 0.11454
93.16786 0.11444
93.21694 0.11434
93.26603 0.11424
93.31511 0.11413
93.36421 0.11403
93.41329 0.11393
93.46238 0.11383
93.51146 0.11373
93.56055 0.11363
93.60964 0.11353
93.65873 0.11343
93.70782 0.11333
93.75689 0.11323
93.80599 0.11313
93.85509 0.11303
93.90418 0.11293
93.95326 0.11282
94.00235 0.11272
94.05143 0.11262
94.10053 0.11252
94.14961 0.11242
94.19868 0.11232
94.24778 0.11222
94.29685 0.11212
94.34597 0.11202
94.39504 0.11191
94.44413 0.11182
94.49321 0.11171
94.54232 0.11161
94.59139 0.11151
94.64048 0.11141
94.68956 0.11131
94.73866 0.11121
94.78775 0.11111
94.83683 0.11101
94.88592 0.11091
94.93501 0.11081
94.98411 0.11071
95.03318 0.11060
95.08226 0.11050
95.13137 0.11040
95.18044 0.11030
95.22953 0.11020
95.27862 0.11010
95.32771 0.11000
95.37679 0.10990
95.42587 0.10980
95.47497 0.10970
95.52404 0.10960
95.57314 0.10949
95.62223 0.10939
95.67131 0.10929
95.72039 0.10919
95.76950 0.10909
95.81858 0.10899
95.86766 0.10889
95.91675 0.10879
95.96585 0.10869
96.01492 0.10859
96.06401 0.10849
96.11310 0.10838
96.16219 0.10828
96.21129 0.10818
96.26036 0.10808
96.30944 0.10798
96.35854 0.10788
96.40762 0.10778
96.45670 0.10768
96.50580 0.10758
96.55488 0.10748
96.60397 0.10738
96.65306 0.10727
96.70215 0.10717
96.75123 0.10707
96.80032 0.10697
96.84941 0.10687
96.89850 0.10677
96.94760 0.10667
96.99666 0.10657
97.04575 0.10647
97.09485 0.10637
97.14393 0.10627
97.19303 0.10617
97.24210 0.10607
97.29120 0.10596
97.34029 0.10586
97.38937 0.10576
97.43846 0.10566
97.48756 0.10556
97.53662 0.10546
97.58572 0.10536
97.63481 0.10526
97.68391 0.10516
97.73300 0.10505
97.78208 0.10496
97.83116 0.10485
97.88024 0.10475
97.92934 0.10465
97.97843 0.10455
98.02752 0.10445
98.07659 0.10435
98.12569 0.10425
98.17477 0.10415
98.22386 0.10405
98.27294 0.10394
98.32204 0.10384
98.37113 0.10374
98.42021 0.10364
98.46929 0.10354
98.51838 0.10344
98.56748 0.10334
98.61656 0.10324
98.66563 0.10314
98.71473 0.10304
98.76382 0.10294
98.81291 0.10284
98.86199 0.10273
98.91107 0.10263
98.96017 0.10253
99.00927 0.10243
99.05834 0.10233
99.10743 0.10223
99.15651 0.10213
99.20560 0.10203
99.25470 0.10193
99.30378 0.10183
99.35285 0.10173
99.40197 0.10162
99.45104 0.10152
99.50013 0.10142
99.54921 0.10132
99.59830 0.10122
99.64739 0.10112
99.69649 0.10102
99.74557 0.10092
99.79463 0.10082
99.84374 0.10072
99.89285 0.10062
99.94192 0.10052
99.99101 0.10041
100.04008 0.10031
100.08918 0.10021
100.13827 0.10011
100.18735 0.10001
100.23644 0.09991
100.28553 0.09981
100.33462 0.09971
100.38370 0.09961
100.43280 0.09951
100.48189 0.09940
100.53096 0.09930
100.58004 0.09920
100.62915 0.09910
100.67824 0.09900
100.72730 0.09890
100.77640 0.09880
100.82547 0.09870
100.87458 0.09860
100.92366 0.09850
100.97273 0.09840
101.02185 0.09829
101.07092 0.09819
101.12003 0.09809
101.16908 0.09799
101.21818 0.09789
101.26728 0.09779
101.31636 0.09769
101.36546 0.09759
101.41454 0.09749
101.46362 0.09739
101.51272 0.09728
101.56181 0.09718
101.61087 0.09708
101.65996 0.09698
101.70906 0.09688
101.75814 0.09678
101.80726 0.09668
101.85632 0.09658
101.90542 0.09648
101.95451 0.09638
102.00358 0.09628
102.05268 0.09618
102.10176 0.09607
102.15085 0.09597
102.19993 0.09587
102.24902 0.09577
102.29810 0.09567
102.34720 0.09557
102.39629 0.09547
102.44539 0.09537
102.49446 0.09527
102.54354 0.09517
102.59265 0.09507
102.64171 0.09497
102.69080 0.09486
102.73991 0.09476
102.78900 0.09466
102.83807 0.09456
102.88716 0.09446
102.93625 0.09436
102.98534 0.09426
103.03443 0.09416
103.08351 0.09406
103.13261 0.09396
103.18169 0.09385
103.23079 0.09375
103.27985 0.09365
103.32896 0.09355
103.37803 0.09345
103.42711 0.09335
103.47622 0.09325
103.52529 0.09315
103.57439 0.09305
103.62346 0.09295
103.67256 0.09285
103.72165 0.09275
103.77074 0.09264
103.81983 0.09254
103.86890 0.09244
103.91800 0.09234
103.96707 0.09224
104.01616 0.09214
104.06527 0.09204
104.11435 0.09194
104.16342 0.09184
104.21252 0.09174
104.26161 0.09164
104.31069 0.09153
104.35977 0.09143
104.40887 0.09133
104.45796 0.09123
104.50703 0.09113
104.55613 0.09103
104.60522 0.09093
104.65429 0.09083
104.70341 0.09073
104.75248 0.09063
104.80157 0.09053
104.85067 0.09042
104.89974 0.09032
104.94884 0.09022
104.99791 0.09012
105.04702 0.09002
105.09608 0.08992
105.14518 0.08982
105.19425 0.08972
105.24335 0.08962
105.29243 0.08952
105.34152 0.08941
105.39060 0.08931
105.43969 0.08921
105.48880 0.08911
105.53789 0.08901
105.58696 0.08891
105.63604 0.08881
105.68515 0.08871
105.73422 0.08861
105.78332 0.08851
105.83238 0.08841
105.88150 0.08831
105.93057 0.08821
105.97966 0.08810
106.02875 0.08800
106.07785 0.08790
106.12691 0.08780
106.17601 0.08770
106.22511 0.08760
106.27419 0.08750
106.32327 0.08740
106.37237 0.08730
106.42145 0.08720
106.47053 0.08710
106.51962 0.08699
106.56870 0.08689
106.61782 0.08679
106.66689 0.08669
106.71599 0.08659
106.76507 0.08649
106.81415 0.08639
106.86323 0.08629
106.91233 0.08619
106.96141 0.08609
107.01049 0.08598
107.05959 0.08589
107.10867 0.08578
107.15777 0.08568
107.20684 0.08558
107.25593 0.08548
107.30503 0.08538
107.35411 0.08528
107.40321 0.08518
107.45228 0.08508
107.50138 0.08498
107.55045 0.08488
107.59955 0.08477
107.64863 0.08467
107.69773 0.08457
107.74679 0.08447
107.79588 0.08437
107.84500 0.08427
107.89406 0.08417
107.94315 0.08407
107.99224 0.08397
108.04135 0.08387
108.09043 0.08376
108.13949 0.08366
108.18861 0.08356
108.23767 0.08346
108.28677 0.08336
108.33586 0.08326
108.38495 0.08316
108.43404 0.08306
108.48311 0.08296
108.53223 0.08286
108.58128 0.08276
108.63040 0.08265
108.67948 0.08255
108.72854 0.08245
108.77765 0.08235
108.82672 0.08225
108.87583 0.08215
108.92490 0.08205
108.97402 0.08195
109.02307 0.08185
109.07215 0.08175
109.12125 0.08165
109.17034 0.08154
109.21945 0.08144
109.26853 0.08134
109.31761 0.08124
109.36670 0.08114
109.41580 0.08104
109.46485 0.08094
109.51397 0.08084
109.56303 0.08074
109.61214 0.08064
109.66121 0.08054
109.71029 0.08044
109.75941 0.08033
109.80849 0.08023
109.85759 0.08013
109.90664 0.08003
109.95574 0.07993
110.00485 0.07983
110.05392 0.07973
110.10300 0.07963
110.15207 0.07953
110.20119 0.07943
110.25027 0.07932
110.29935 0.07923
110.34845 0.07913
110.39753 0.07902
110.44663 0.07892
110.49569 0.07882
110.54479 0.07872
110.59388 0.07862
110.64297 0.07852
110.69204 0.07842
110.74114 0.07831
110.79023 0.07822
110.83930 0.07811
110.88842 0.07801
110.93748 0.07791
110.98656 0.07781
111.03564 0.07771
111.08477 0.07761
111.13385 0.07751
111.18292 0.07741
111.23202 0.07731
111.28113 0.07721
111.33021 0.07711
111.37928 0.07701
111.42837 0.07691
111.47747 0.07680
111.52654 0.07670
111.57562 0.07660
111.62470 0.07650
111.67381 0.07640
111.72287 0.07630
111.77199 0.07620
111.82107 0.07610
111.87017 0.07600
111.91922 0.07590
111.96833 0.07580
112.01744 0.07569
112.06650 0.07559
112.11559 0.07549
112.16466 0.07539
112.21377 0.07529
112.26286 0.07519
112.31194 0.07509
112.36103 0.07499
112.41010 0.07489
112.45918 0.07479
112.50830 0.07469
112.55737 0.07459
112.60647 0.07448
112.65555 0.07438
112.70464 0.07428
112.75375 0.07418
112.80280 0.07408
112.85191 0.07398
112.90100 0.07388
112.95006 0.07378
112.99914 0.07367
113.04825 0.07357
113.09734 0.07347
113.14643 0.07337
113.19551 0.07327
113.24458 0.07317
113.29367 0.07307
113.34279 0.07297
113.39185 0.07287
113.44094 0.07277
113.49003 0.07267
113.53910 0.07257
113.58820 0.07246
113.63729 0.07236
113.68639 0.07226
113.73549 0.07216
113.78456 0.07206
113.83362 0.07196
113.88273 0.07186
113.93183 0.07176
113.98093 0.07166
114.03000 0.07156
114.07907 0.07146
114.12817 0.07136
114.17726 0.07125
114.22634 0.07115
114.27542 0.07105
114.32453 0.07095
114.37362 0.07085
114.42271 0.07075
114.47176 0.07065
114.52088 0.07055
114.56996 0.07045
114.61903 0.07035
114.66813 0.07025
114.71724 0.07014
114.76633 0.07004
114.81539 0.06994
114.86450 0.06984
114.91359 0.06974
114.96267 0.06964
115.01174 0.06954
115.06084 0.06944
115.10992 0.06934
115.15901 0.06923
115.20808 0.06913
115.25720 0.06903
115.30627 0.06893
115.35535 0.06883
115.40445 0.06873
115.45353 0.06863
115.50263 0.06853
115.55170 0.06843
115.60078 0.06833
115.64989 0.06823
115.69894 0.06813
115.74804 0.06802
115.79716 0.06792
115.84621 0.06782
115.89530 0.06772
115.94439 0.06762
115.99351 0.06752
116.04256 0.06742
116.09166 0.06732
116.14073 0.06722
116.18986 0.06712
116.23893 0.06702
116.28800 0.06691
116.33710 0.06682
116.38621 0.06671
116.43529 0.06661
116.48434 0.06651
116.53345 0.06641
116.58255 0.06631
116.63164 0.06621
116.68071 0.06611
116.72981 0.06601
116.77887 0.06591
116.82797 0.06581
116.87704 0.06570
116.92615 0.06560
116.97524 0.06550
117.02433 0.06540
117.07340 0.06530
117.12250 0.06520
117.17158 0.06510
117.22067 0.06500
117.26975 0.06490
117.31883 0.06480
117.36794 0.06469
117.41704 0.06459
117.46609 0.06449
117.51520 0.06439
117.56429 0.06429
117.61336 0.06419
117.66248 0.06409
117.71155 0.06399
117.76065 0.06389
117.80972 0.06379
117.85881 0.06369
117.90792 0.06359
117.95698 0.06349
118.00610 0.06338
118.05514 0.06328
118.10423 0.06318
118.15332 0.06308
118.20241 0.06298
118.25153 0.06288
118.30062 0.06278
118.34966 0.06268
118.39877 0.06258
118.44788 0.06247
118.49694 0.06238
118.54603 0.06227
118.59512 0.06218
118.64423 0.06207
118.69329 0.06197
118.74240 0.06187
118.79150 0.06177
118.84055 0.06167
118.88962 0.06157
118.93874 0.06147
118.98782 0.06136
119.03692 0.06126
119.08597 0.06116
119.13509 0.06106
119.18415 0.06096
119.23326 0.06086
119.28233 0.06076
119.33143 0.06066
119.38052 0.06056
119.42962 0.06046
119.47869 0.06036
119.52779 0.06026
119.57689 0.06016
119.62594 0.06005
119.67505 0.05995
119.72413 0.05985
119.77322 0.05975
119.82227 0.05965
119.87142 0.05955
119.92045 0.05945
119.96957 0.05935
120.01865 0.05925
120.06777 0.05915
120.11682 0.05905
120.16592 0.05895
120.21500 0.05884
120.26410 0.05874
120.31318 0.05864
120.36225 0.05854
120.41135 0.05844
120.46045 0.05834
120.50951 0.05824
120.55861 0.05814
120.60770 0.05804
120.65679 0.05793
120.70589 0.05783
120.75495 0.05773
120.80403 0.05763
120.85315 0.05753
120.90221 0.05743
120.95132 0.05733
121.00038 0.05723
121.04951 0.05713
121.09856 0.05703
121.14768 0.05693
121.19674 0.05682
121.24583 0.05672
121.29494 0.05662
121.34402 0.05652
121.39309 0.05642
121.44218 0.05632
121.49131 0.05622
121.54038 0.05612
121.58947 0.05602
121.63853 0.05592
121.68765 0.05582
121.73672 0.05572
121.78580 0.05562
121.83489 0.05551
121.88400 0.05541
121.93308 0.05531
121.98215 0.05521
122.03124 0.05511
122.08031 0.05501
122.12939 0.05491
122.17848 0.05481
122.22761 0.05471
122.27669 0.05461
122.32575 0.05451
122.37486 0.05440
122.42392 0.05430
122.47304 0.05420
122.52211 0.05410
122.57119 0.05400
122.62028 0.05390
122.66938 0.05380
122.71849 0.05370
122.76753 0.05360
122.81664 0.05350
122.86575 0.05340
122.91484 0.05329
122.96391 0.05319
123.01296 0.05309
123.06210 0.05299
123.11114 0.05289
123.16023 0.05279
123.20932 0.05269
123.25840 0.05259
123.30751 0.05249
123.35660 0.05238
123.40569 0.05229
123.45474 0.05218
123.50387 0.05208
123.55296 0.05198
123.60205 0.05188
123.65114 0.05178
123.70022 0.05168
123.74931 0.05158
123.79837 0.05148
123.84747 0.05138
123.89654 0.05128
123.94563 0.05117
123.99475 0.05107
124.04382 0.05097
124.09291 0.05087
124.14200 0.05077
124.19111 0.05067
124.24020 0.05057
124.28928 0.05047
124.33833 0.05037
124.38741 0.05027
124.43650 0.05017
124.48559 0.05007
124.53471 0.04997
124.58377 0.04986
124.63290 0.04976
124.68195 0.04966
124.73103 0.04956
124.78015 0.04946
124.82924 0.04936
124.87831 0.04926
124.92740 0.04916
124.97645 0.04906
125.02557 0.04896
125.07465 0.04886
125.12373 0.04875
125.17284 0.04865
125.22191 0.04855
125.27101 0.04845
125.32009 0.04835
125.36921 0.04825
125.41827 0.04815
125.46734 0.04805
125.51647 0.04795
125.56552 0.04785
125.61460 0.04775
125.66371 0.04764
125.71282 0.04754
125.76187 0.04744
125.81096 0.04734
125.86007 0.04724
125.90914 0.04714
125.95824 0.04704
126.00732 0.04694
126.05640 0.04684
126.10553 0.04674
126.15457 0.04664
126.20368 0.04653
126.25274 0.04643
126.30185 0.04633
126.35095 0.04623
126.40003 0.04613
126.44910 0.04603
126.49815 0.04593
126.54730 0.04583
126.59640 0.04573
126.64545 0.04562
126.69453 0.04552
126.74362 0.04543
126.79271 0.04532
126.84179 0.04522
126.89087 0.04512
126.93997 0.04502
126.98906 0.04492
127.03814 0.04482
127.08724 0.04472
127.13635 0.04462
127.18545 0.04452
127.23450 0.04441
127.28357 0.04431
127.33270 0.04421
127.38178 0.04411
127.43087 0.04401
127.47993 0.04391
127.52901 0.04381
127.57813 0.04371
127.62722 0.04361
127.67626 0.04351
127.72538 0.04341
127.77447 0.04331
127.82356 0.04320
127.87261 0.04310
127.92169 0.04300
127.97082 0.04290
128.01990 0.04280
128.06901 0.04270
128.11810 0.04260
128.16713 0.04250
128.21622 0.04240
128.26534 0.04230
128.31441 0.04220
128.36347 0.04209
128.41256 0.04199
128.46172 0.04189
128.51080 0.04179
128.55986 0.04169
128.60893 0.04159
128.65801 0.04149
128.70711 0.04139
128.75622 0.04129
128.80530 0.04119
128.85439 0.04108
128.90345 0.04098
128.95254 0.04088
129.00166 0.04078
129.05073 0.04068
129.09985 0.04058
129.14888 0.04048
129.19803 0.04038
129.24709 0.04028
129.29619 0.04018
129.34526 0.04008
129.39437 0.03998
129.44348 0.03987
129.49253 0.03977
129.54161 0.03967
129.59070 0.03957
129.63976 0.03947
129.68885 0.03937
129.73797 0.03927
129.78707 0.03917
129.83615 0.03907
129.88526 0.03897
129.93434 0.03887
129.98341 0.03876
130.03250 0.03866
130.08155 0.03856
130.13064 0.03846
130.17973 0.03836
130.22885 0.03826
130.27795 0.03816
130.32699 0.03806
130.37610 0.03796
130.42521 0.03786
130.47429 0.03776
130.52335 0.03766
130.57245 0.03755
130.62152 0.03745
130.67061 0.03735
130.71972 0.03725
130.76877 0.03715
130.81792 0.03705
130.86693 0.03695
130.91609 0.03685
130.96512 0.03675
131.01423 0.03665
131.06333 0.03654
131.11246 0.03644
131.16149 0.03634
131.21056 0.03624
131.25964 0.03614
131.30874 0.03604
131.35784 0.03594
131.40695 0.03584
131.45604 0.03574
131.50511 0.03564
131.55422 0.03554
131.60327 0.03544
131.65238 0.03533
131.70144 0.03523
131.75053 0.03513
131.79962 0.03503
131.84871 0.03493
131.89776 0.03483
131.94689 0.03473
131.99594 0.03463
132.04503 0.03453
132.09418 0.03443
132.14326 0.03432
132.19234 0.03422
132.24146 0.03412
132.29054 0.03402
132.33959 0.03392
132.38871 0.03382
132.43774 0.03372
132.48688 0.03362
132.53599 0.03352
132.58506 0.03342
132.63412 0.03332
132.68318 0.03321
132.73229 0.03311
132.78143 0.03301
132.83051 0.03291
132.87958 0.03281
132.92864 0.03271
132.97777 0.03261
133.02682 0.03251
133.07586 0.03241
133.12500 0.03231
133.17413 0.03221
133.22312 0.03210
133.27223 0.03201
133.32134 0.03191
133.37047 0.03180
133.41956 0.03170
133.46863 0.03160
133.51769 0.03150

